 Al Density=2.699, Angle=90.deg
 Photon Energy (eV), Atten Length (microns)
   30.0000  0.410287
   30.3089  0.409589
   30.6210  0.408890
   30.9363  0.408193
   31.2548  0.407497
   31.5766  0.406803
   31.9018  0.406110
   32.2302  0.405417
   32.5621  0.405061
   32.8974  0.405270
   33.2361  0.406504
   33.5783  0.407743
   33.9241  0.408987
   34.2734  0.410233
   34.6263  0.411483
   34.9828  0.412737
   35.3430  0.413995
   35.7069  0.415257
   36.0746  0.416523
   36.4460  0.417792
   36.8213  0.419065
   37.2004  0.420342
   37.5835  0.421622
   37.9705  0.422907
   38.3614  0.424197
   38.7564  0.425490
   39.1555  0.426788
   39.5586  0.428088
   39.9660  0.429393
   40.3775  0.430701
   40.7932  0.432273
   41.2133  0.434327
   41.6376  0.437063
   42.0663  0.439817
   42.4995  0.442588
   42.9371  0.445376
   43.3792  0.448182
   43.8258  0.451006
   44.2771  0.453847
   44.7330  0.456706
   45.1936  0.459583
   45.6589  0.462479
   46.1291  0.465393
   46.6041  0.468325
   47.0839  0.471276
   47.5687  0.475716
   48.0585  0.483418
   48.5534  0.492863
   49.0533  0.503044
   49.5584  0.513434
   50.0687  0.524038
   50.5842  0.534861
   51.1050  0.545909
   51.6312  0.557185
   52.1629  0.568694
   52.7000  0.580440
   53.2426  0.591879
   53.7908  0.602516
   54.3447  0.612514
   54.9043  0.622449
   55.4696  0.632544
   56.0407  0.642803
   56.6178  0.653230
   57.2007  0.663823
   57.7897  0.674590
   58.3847  0.685532
   58.9859  0.696651
   59.5933  0.706547
   60.2069  0.714355
   60.8268  0.721059
   61.4531  0.727567
   62.0859  0.734134
   62.7251  0.740761
   63.3710  0.745602
   64.0235  0.737429
   64.6827  0.728679
   65.3487  0.719509
   66.0216  0.710457
   66.7014  0.701516
   67.3882  0.692686
   68.0821  0.685278
   68.7831  0.678220
   69.4913  0.671369
   70.2068  0.664587
   70.9297  0.657873
   71.6601  0.651227
   72.3979  0.644649
   73.1434  5.598234E-02
   73.8965  5.458914E-02
   74.6574  5.323076E-02
   75.4261  5.190624E-02
   76.2027  5.061469E-02
   76.9874  4.935518E-02
   77.7801  4.812684E-02
   78.5809  4.692920E-02
   79.3901  4.576138E-02
   80.2075  4.462257E-02
   81.0334  4.356976E-02
   81.8677  4.257523E-02
   82.7107  4.160805E-02
   83.5623  4.066288E-02
   84.4228  3.973921E-02
   85.2920  3.883639E-02
   86.1702  3.806188E-02
   87.0575  3.748764E-02
   87.9539  3.718713E-02
   88.8595  3.695582E-02
   89.7745  3.672596E-02
   90.6988  3.649754E-02
   91.6327  3.627053E-02
   92.5762  3.604494E-02
   93.5295  3.582073E-02
   94.4925  3.559795E-02
   95.4655  3.537656E-02
   96.4484  3.515654E-02
   97.4415  3.493792E-02
   98.4448  3.472061E-02
   99.4585  3.450464E-02
   100.483  3.429002E-02
   101.517  3.407669E-02
   102.562  3.386738E-02
   103.619  3.367648E-02
   104.685  3.351424E-02
   105.763  3.337359E-02
   106.852  3.323373E-02
   107.953  3.309437E-02
   109.064  3.295550E-02
   110.187  3.281717E-02
   111.322  3.267945E-02
   112.468  3.254242E-02
   113.626  3.240595E-02
   114.796  3.227007E-02
   115.978  3.213486E-02
   117.172  3.200004E-02
   118.379  3.186570E-02
   119.597  3.173207E-02
   120.829  3.159902E-02
   122.073  3.146653E-02
   123.330  3.133451E-02
   124.600  3.131578E-02
   125.883  3.151655E-02
   127.179  3.179082E-02
   128.488  3.208882E-02
   129.811  3.238965E-02
   131.148  3.269327E-02
   132.498  3.299972E-02
   133.863  3.330906E-02
   135.241  3.362131E-02
   136.634  3.393648E-02
   138.040  3.425460E-02
   139.462  3.457569E-02
   140.898  3.489980E-02
   142.349  3.522696E-02
   143.814  3.555718E-02
   145.295  3.589050E-02
   146.791  3.622692E-02
   148.303  3.656649E-02
   149.830  3.690928E-02
   151.372  3.730764E-02
   152.931  3.775457E-02
   154.506  3.820972E-02
   156.096  3.867042E-02
   157.704  3.913669E-02
   159.328  3.960861E-02
   160.968  4.008621E-02
   162.626  4.056955E-02
   164.300  4.105870E-02
   165.992  4.155377E-02
   167.701  4.205481E-02
   169.428  4.256190E-02
   171.172  4.307507E-02
   172.935  4.359442E-02
   174.715  4.412005E-02
   176.514  4.465207E-02
   178.332  4.532544E-02
   180.168  4.613763E-02
   182.023  4.720877E-02
   183.897  4.830494E-02
   185.791  4.942660E-02
   187.704  5.057407E-02
   189.637  5.174836E-02
   191.589  5.295001E-02
   193.562  5.417924E-02
   195.555  5.543710E-02
   197.568  5.672434E-02
   199.603  5.804155E-02
   201.658  5.939595E-02
   203.734  6.079425E-02
   205.832  6.222533E-02
   207.952  6.369016E-02
   210.093  6.518983E-02
   212.256  6.672450E-02
   214.441  6.829516E-02
   216.650  6.990306E-02
   218.880  7.154878E-02
   221.134  7.323328E-02
   223.411  7.488891E-02
   225.711  7.650642E-02
   228.035  7.804268E-02
   230.383  7.960979E-02
   232.756  8.120837E-02
   235.152  8.283907E-02
   237.573  8.450250E-02
   240.020  8.619933E-02
   242.491  8.793011E-02
   244.988  8.969571E-02
   247.510  9.149676E-02
   250.059  9.333424E-02
   252.634  9.520852E-02
   255.235  9.712020E-02
   257.863  9.907044E-02
   260.518  0.101060
   263.201  0.103089
   265.911  0.105245
   268.649  0.107561
   271.415  0.110374
   274.209  0.113260
   277.033  0.116222
   279.885  0.119262
   282.767  0.122380
   285.679  0.125581
   288.620  0.128865
   291.592  0.132235
   294.594  0.135694
   297.628  0.139242
   300.692  0.142884
   303.788  0.146621
   306.916  0.150455
   310.077  0.154389
   313.269  0.158427
   316.495  0.162570
   319.754  0.166822
   323.046  0.171185
   326.372  0.175662
   329.733  0.180255
   333.128  0.184969
   336.558  0.189807
   340.024  0.194771
   343.525  0.199865
   347.062  0.205091
   350.635  0.210455
   354.246  0.215959
   357.893  0.221607
   361.578  0.226974
   365.301  0.232399
   369.063  0.237866
   372.863  0.243461
   376.702  0.249188
   380.581  0.255050
   384.499  0.261049
   388.459  0.267191
   392.458  0.273475
   396.499  0.279908
   400.582  0.286492
   404.707  0.293231
   408.874  0.300129
   413.084  0.307189
   417.337  0.314415
   421.634  0.321811
   425.976  0.329381
   430.362  0.337129
   434.793  0.345147
   439.270  0.353788
   443.793  0.362789
   448.362  0.372114
   452.979  0.381665
   457.643  0.391462
   462.355  0.401512
   467.116  0.411824
   471.926  0.422399
   476.785  0.433244
   481.694  0.444371
   486.654  0.455789
   491.665  0.467518
   496.727  0.479620
   501.842  0.492091
   507.009  0.505072
   512.230  0.518439
   517.504  0.532203
   522.832  0.546302
   528.216  0.560749
   533.655  0.575540
   539.150  0.590696
   544.701  0.606244
   550.310  0.622198
   555.976  0.638800
   561.701  0.655977
   567.484  0.673794
   573.327  0.692219
   579.231  0.711254
   585.195  0.730861
   591.220  0.751027
   597.308  0.771770
   603.458  0.793085
   609.672  0.814987
   615.949  0.837495
   622.291  0.860654
   628.699  0.884531
   635.172  0.909475
   641.712  0.935547
   648.320  0.962689
   654.995  0.991128
   661.740  1.02040
   668.553  1.05053
   675.437  1.07982
   682.392  1.10920
   689.418  1.13828
   696.517  1.16781
   703.689  1.19824
   710.934  1.23067
   718.254  1.26462
   725.650  1.29991
   733.122  1.33619
   740.670  1.37348
   748.297  1.41182
   756.002  1.45123
   763.786  1.49178
   771.650  1.53353
   779.596  1.57667
   787.623  1.62115
   795.733  1.66708
   803.926  1.71432
   812.204  1.76289
   820.567  1.81287
   829.016  1.86426
   837.552  1.91710
   846.176  1.97146
   854.888  2.02739
   863.691  2.08496
   872.584  2.14424
   881.569  2.20521
   890.646  2.26791
   899.816  2.33239
   909.081  2.39870
   918.442  2.46688
   927.899  2.53714
   937.453  2.60951
   947.106  2.68393
   956.858  2.76046
   966.710  2.83917
   976.664  2.92019
   986.720  3.00346
   996.880  3.08892
   1007.14  3.17661
   1017.51  3.26630
   1027.99  3.35628
   1038.58  3.44980
   1049.27  3.54673
   1060.07  3.64844
   1070.99  3.75310
   1082.02  3.86079
   1093.16  3.97156
   1104.41  4.08552
   1115.79  4.20276
   1127.27  4.32333
   1138.88  4.44736
   1150.61  4.57493
   1162.46  4.70619
   1174.42  4.84123
   1186.52  4.98014
   1198.73  5.12303
   1211.08  5.27001
   1223.55  5.42123
   1236.15  5.57640
   1248.87  5.73533
   1261.73  5.89782
   1274.72  6.06431
   1287.85  6.23435
   1301.11  6.40918
   1314.51  6.58894
   1328.04  6.77372
   1341.72  6.96369
   1355.53  7.15901
   1369.49  7.35978
   1383.59  7.56616
   1397.84  7.77831
   1412.23  7.99637
   1426.77  8.22057
   1441.46  8.45111
   1456.30  8.68955
   1471.30  8.93578
   1486.45  9.19197
   1501.75  9.46380
   1517.22  9.75017
   1532.84  10.0474
   1548.62  10.3536
   1564.57  0.895964
   1580.68  0.917920
   1596.95  0.940415
   1613.40  0.963458
   1630.01  0.987061
   1646.79  1.01124
   1663.75  1.03602
   1680.88  1.06140
   1698.19  1.08741
   1715.67  1.11405
   1733.34  1.14176
   1751.18  1.17064
   1769.22  1.20054
   1787.43  1.23133
   1805.84  1.26307
   1824.43  1.29563
   1843.22  1.32903
   1862.20  1.36329
   1881.37  1.39843
   1900.74  1.43449
   1920.31  1.47146
   1940.09  1.50939
   1960.06  1.54829
   1980.24  1.58820
   2000.63  1.62889
   2021.23  1.67018
   2042.05  1.71389
   2063.07  1.75914
   2084.31  1.80580
   2105.78  1.85383
   2127.46  1.90322
   2149.36  1.95405
   2171.49  2.00640
   2193.85  2.06029
   2216.44  2.11575
   2239.26  2.17281
   2262.32  2.23155
   2285.62  2.29203
   2309.15  2.35424
   2332.93  2.41828
   2356.95  2.48425
   2381.22  2.55213
   2405.73  2.62200
   2430.51  2.69391
   2455.53  2.76787
   2480.81  2.84420
   2506.36  2.92270
   2532.17  3.00346
   2558.24  3.08666
   2584.58  3.17225
   2611.19  3.26036
   2638.08  3.35114
   2665.24  3.44454
   2692.68  3.54068
   2720.41  3.63974
   2748.42  3.74173
   2776.72  3.84675
   2805.31  3.95484
   2834.20  4.06609
   2863.38  4.18074
   2892.86  4.29873
   2922.65  4.42023
   2952.74  4.54540
   2983.15  4.67422
   3013.86  4.80685
   3044.89  4.94347
   3076.25  5.08413
   3107.92  5.22905
   3139.92  5.37823
   3172.25  5.53180
   3204.92  5.69005
   3237.92  5.85296
   3271.26  6.02070
   3304.94  6.19360
   3338.97  6.37160
   3373.35  6.55489
   3408.08  6.74368
   3443.17  6.93803
   3478.63  7.13828
   3514.45  7.34455
   3550.63  7.55699
   3587.19  7.77584
   3624.13  8.00121
   3661.44  8.23332
   3699.14  8.47249
   3737.23  8.71879
   3775.71  8.97247
   3814.59  9.23380
   3853.87  9.50290
   3893.55  9.78023
   3933.64  10.0658
   3974.14  10.3599
   4015.06  10.6632
   4056.40  10.9755
   4098.17  11.2971
   4140.37  11.6286
   4183.00  11.9699
   4226.07  12.3216
   4269.59  12.6839
   4313.55  13.0571
   4357.96  13.4417
   4402.83  13.8380
   4448.17  14.2460
   4493.97  14.6666
   4540.24  15.1000
   4586.99  15.5466
   4634.22  16.0066
   4681.94  16.4804
   4730.15  16.9686
   4778.85  17.4719
   4828.06  17.9903
   4877.77  18.5242
   4928.00  19.0747
   4978.74  19.6419
   5030.00  20.2263
   5036.95  20.3063
   5043.91  20.3867
   5050.87  20.4674
   5057.85  20.5484
   5064.83  20.6299
   5071.83  20.7116
   5078.84  20.7936
   5085.85  20.8760
   5092.88  20.9587
   5099.91  21.0417
   5106.96  21.1251
   5114.01  21.2088
   5121.07  21.2928
   5128.15  21.3771
   5135.23  21.4618
   5142.32  21.5470
   5149.43  21.6325
   5156.54  21.7184
   5163.66  21.8045
   5170.79  21.8911
   5177.94  21.9780
   5185.09  22.0652
   5192.25  22.1528
   5199.42  22.2407
   5206.60  22.3289
   5213.80  22.4176
   5221.00  22.5065
   5228.21  22.5959
   5235.43  22.6856
   5242.66  22.7756
   5249.90  22.8661
   5257.16  22.9569
   5264.42  23.0480
   5271.69  23.1395
   5278.97  23.2314
   5286.26  23.3236
   5293.56  23.4162
   5300.88  23.5091
   5308.20  23.6025
   5315.53  23.6963
   5322.87  23.7905
   5330.23  23.8850
   5337.59  23.9799
   5344.96  24.0752
   5352.34  24.1709
   5359.74  24.2669
   5367.14  24.3634
   5374.55  24.4601
   5381.98  24.5573
   5389.41  24.6549
   5396.85  24.7530
   5404.31  24.8514
   5411.77  24.9502
   5419.25  25.0494
   5426.73  25.1490
   5434.23  25.2491
   5441.74  25.3495
   5449.25  25.4503
   5456.78  25.5515
   5464.32  25.6531
   5471.87  25.7551
   5479.42  25.8576
   5486.99  25.9606
   5494.57  26.0641
   5502.16  26.1679
   5509.76  26.2722
   5517.37  26.3769
   5524.99  26.4820
   5532.62  26.5875
   5540.27  26.6934
   5547.92  26.7998
   5555.58  26.9066
   5563.26  27.0138
   5570.94  27.1214
   5578.63  27.2294
   5586.34  27.3379
   5594.06  27.4468
   5601.78  27.5561
   5609.52  27.6659
   5617.27  27.7761
   5625.03  27.8867
   5632.80  27.9979
   5640.58  28.1094
   5648.37  28.2213
   5656.17  28.3338
   5663.98  28.4467
   5671.81  28.5601
   5679.64  28.6741
   5687.49  28.7884
   5695.34  28.9031
   5703.21  29.0184
   5711.09  29.1341
   5718.98  29.2503
   5726.88  29.3669
   5734.79  29.4839
   5742.71  29.6015
   5750.64  29.7196
   5758.58  29.8382
   5766.54  29.9573
   5774.50  30.0768
   5782.48  30.1969
   5790.47  30.3174
   5798.46  30.4384
   5806.47  30.5599
   5814.49  30.6818
   5822.52  30.8042
   5830.57  30.9272
   5838.62  31.0506
   5846.69  31.1747
   5854.76  31.2992
   5862.85  31.4242
   5870.95  31.5497
   5879.06  31.6757
   5887.18  31.8022
   5895.31  31.9293
   5903.45  32.0568
   5911.61  32.1849
   5919.77  32.3134
   5927.95  32.4425
   5936.14  32.5721
   5944.34  32.7025
   5952.55  32.8334
   5960.77  32.9648
   5969.00  33.0967
   5977.25  33.2292
   5985.50  33.3622
   5993.77  33.4957
   6002.05  33.6298
   6010.34  33.7644
   6018.64  33.8995
   6026.96  34.0352
   6035.28  34.1714
   6043.62  34.3080
   6051.97  34.4452
   6060.32  34.5829
   6068.70  34.7212
   6077.08  34.8600
   6085.47  34.9993
   6093.88  35.1393
   6102.29  35.2798
   6110.72  35.4208
   6119.16  35.5624
   6127.62  35.7046
   6136.08  35.8477
   6144.56  35.9914
   6153.04  36.1356
   6161.54  36.2804
   6170.05  36.4258
   6178.58  36.5717
   6187.11  36.7183
   6195.66  36.8654
   6204.21  37.0132
   6212.78  37.1615
   6221.37  37.3104
   6229.96  37.4599
   6238.56  37.6101
   6247.18  37.7608
   6255.81  37.9123
   6264.45  38.0642
   6273.10  38.2169
   6281.77  38.3701
   6290.45  38.5238
   6299.14  38.6783
   6307.84  38.8334
   6316.55  38.9890
   6325.27  39.1453
   6334.01  39.3024
   6342.76  39.4601
   6351.52  39.6184
   6360.29  39.7773
   6369.08  39.9370
   6377.88  40.0972
   6386.69  40.2580
   6395.51  40.4196
   6404.34  40.5817
   6413.19  40.7445
   6422.05  40.9080
   6430.92  41.0722
   6439.80  41.2371
   6448.70  41.4026
   6457.60  41.5688
   6466.52  41.7358
   6475.45  41.9033
   6484.40  42.0715
   6493.36  42.2405
   6502.32  42.4100
   6511.31  42.5803
   6520.30  42.7512
   6529.31  42.9228
   6538.33  43.0953
   6547.36  43.2684
   6556.40  43.4423
   6565.46  43.6169
   6574.52  43.7922
   6583.61  43.9682
   6592.70  44.1448
   6601.81  44.3222
   6610.92  44.5003
   6620.06  44.6791
   6629.20  44.8586
   6638.36  45.0389
   6647.53  45.2200
   6656.71  45.4018
   6665.90  45.5843
   6675.11  45.7675
   6684.33  45.9515
   6693.56  46.1362
   6702.81  46.3217
   6712.07  46.5080
   6721.34  46.6949
   6730.62  46.8826
   6739.92  47.0711
   6749.23  47.2603
   6758.55  47.4506
   6767.89  47.6415
   6777.24  47.8332
   6786.60  48.0258
   6795.97  48.2190
   6805.36  48.4130
   6814.76  48.6079
   6824.17  48.8035
   6833.60  49.0000
   6843.04  49.1971
   6852.49  49.3951
   6861.95  49.5940
   6871.43  49.7936
   6880.92  49.9941
   6890.43  50.1954
   6899.95  50.3975
   6909.48  50.6005
   6919.02  50.8041
   6928.58  51.0087
   6938.15  51.2141
   6947.73  51.4202
   6957.33  51.6272
   6966.94  51.8352
   6976.56  52.0440
   6986.20  52.2537
   6995.85  52.4642
   7005.51  52.6756
   7015.19  52.8879
   7024.88  53.1010
   7034.58  53.3149
   7044.30  53.5298
   7054.03  53.7454
   7063.77  53.9619
   7073.53  54.1794
   7083.30  54.3977
   7093.08  54.6171
   7102.88  54.8373
   7112.69  55.0584
   7122.52  55.2805
   7132.35  55.5033
   7142.21  55.7271
   7152.07  55.9519
   7161.95  56.1774
   7171.84  56.4040
   7181.75  56.6314
   7191.67  56.8597
   7201.60  57.0892
   7211.55  57.3195
   7221.51  57.5507
   7231.49  57.7830
   7241.47  58.0161
   7251.48  58.2503
   7261.49  58.4853
   7271.52  58.7212
   7281.57  58.9582
   7291.62  59.1961
   7301.70  59.4349
   7311.78  59.6748
   7321.88  59.9157
   7332.00  60.1577
   7342.12  60.4006
   7352.26  60.6444
   7362.42  60.8894
   7372.59  61.1352
   7382.77  61.3820
   7392.97  61.6299
   7403.18  61.8787
   7413.41  62.1285
   7423.65  62.3794
   7433.90  62.6313
   7444.17  62.8844
   7454.45  63.1385
   7464.75  63.3936
   7475.06  63.6498
   7485.39  63.9069
   7495.72  64.1650
   7506.08  64.4244
   7516.45  64.6846
   7526.83  64.9461
   7537.23  65.2084
   7547.64  65.4718
   7558.06  65.7366
   7568.50  66.0024
   7578.96  66.2692
   7589.42  66.5372
   7599.91  66.8062
   7610.40  67.0764
   7620.92  67.3475
   7631.44  67.6198
   7641.98  67.8933
   7652.54  68.1677
   7663.11  68.4433
   7673.70  68.7202
   7684.29  68.9981
   7694.91  69.2773
   7705.54  69.5575
   7716.18  69.8389
   7726.84  70.1215
   7737.51  70.4051
   7748.20  70.6898
   7758.90  70.9759
   7769.62  71.2629
   7780.35  71.5512
   7791.10  71.8407
   7801.86  72.1314
   7812.64  72.4236
   7823.43  72.7168
   7834.23  73.0111
   7845.06  73.3068
   7855.89  73.6036
   7866.74  73.9017
   7877.61  74.2008
   7888.49  74.5012
   7899.39  74.8029
   7910.30  75.1057
   7921.22  75.4098
   7932.17  75.7152
   7943.12  76.0218
   7954.09  76.3296
   7965.08  76.6388
   7976.08  76.9491
   7987.10  77.2608
   7998.13  77.5736
   8009.18  77.8877
   8020.24  78.2032
   8031.32  78.5199
   8042.41  78.8378
   8053.52  79.1572
   8064.65  79.4780
   8075.79  79.8002
   8086.94  80.1236
   8098.11  80.4482
   8109.30  80.7744
   8120.50  81.1017
   8131.71  81.4303
   8142.95  81.7604
   8154.19  82.0917
   8165.46  82.4245
   8176.74  82.7584
   8188.03  83.0940
   8199.34  83.4312
   8210.67  83.7696
   8222.01  84.1094
   8233.36  84.4507
   8244.74  84.7932
   8256.13  85.1372
   8267.53  85.4825
   8278.95  85.8292
   8290.38  86.1774
   8301.83  86.5269
   8313.30  86.8778
   8324.79  87.2305
   8336.28  87.5843
   8347.80  87.9396
   8359.33  88.2965
   8370.88  88.6547
   8382.44  89.0145
   8394.02  89.3756
   8405.61  89.7381
   8417.22  90.1023
   8428.85  90.4678
   8440.49  90.8347
   8452.15  91.2036
   8463.82  91.5740
   8475.51  91.9461
   8487.22  92.3196
   8498.95  92.6945
   8510.68  93.0711
   8522.44  93.4491
   8534.21  93.8286
   8546.00  94.2099
   8557.80  94.5925
   8569.63  94.9768
   8581.46  95.3625
   8593.32  95.7498
   8605.19  96.1389
   8617.07  96.5294
   8628.97  96.9215
   8640.89  97.3153
   8652.83  97.7106
   8664.78  98.1076
   8676.75  98.5061
   8688.73  98.9062
   8700.74  99.3080
   8712.75  99.7114
   8724.79  100.116
   8736.84  100.523
   8748.91  100.932
   8760.99  101.342
   8773.09  101.754
   8785.21  102.168
   8797.35  102.583
   8809.50  103.000
   8821.67  103.418
   8833.85  103.839
   8846.05  104.260
   8858.27  104.684
   8870.51  105.110
   8882.76  105.537
   8895.03  105.967
   8907.32  106.398
   8919.62  106.831
   8931.94  107.265
   8944.28  107.701
   8956.63  108.139
   8969.00  108.579
   8981.39  109.021
   8993.80  109.465
   9006.22  109.910
   9018.66  110.357
   9031.12  110.806
   9043.59  111.257
   9056.08  111.710
   9068.59  112.165
   9081.12  112.621
   9093.66  113.080
   9106.22  113.540
   9118.80  114.002
   9131.40  114.466
   9144.01  114.932
   9156.64  115.400
   9169.29  115.870
   9181.95  116.342
   9194.64  116.815
   9207.34  117.291
   9220.05  117.768
   9232.79  118.248
   9245.54  118.729
   9258.31  119.213
   9271.10  119.698
   9283.91  120.185
   9296.73  120.674
   9309.57  121.166
   9322.43  121.660
   9335.31  122.156
   9348.20  122.653
   9361.12  123.153
   9374.05  123.655
   9386.99  124.158
   9399.96  124.664
   9412.94  125.172
   9425.95  125.682
