 Au Density=19.32, Angle=90.deg
 Photon Energy (eV), Atten Length (microns)
   30.0000  5.983534E-03
   30.3089  5.920503E-03
   30.6210  5.908004E-03
   30.9363  5.895489E-03
   31.2548  5.885649E-03
   31.5766  5.940741E-03
   31.9018  6.035251E-03
   32.2302  6.175572E-03
   32.5621  6.278419E-03
   32.8974  6.370933E-03
   33.2361  6.449500E-03
   33.5783  6.529067E-03
   33.9241  6.609620E-03
   34.2734  6.691145E-03
   34.6263  6.773817E-03
   34.9828  6.857604E-03
   35.3430  6.942637E-03
   35.7069  7.028733E-03
   36.0746  7.115901E-03
   36.4460  7.204124E-03
   36.8213  7.286157E-03
   37.2004  7.356959E-03
   37.5835  7.418220E-03
   37.9705  7.477591E-03
   38.3614  7.537454E-03
   38.7564  7.597786E-03
   39.1555  7.658595E-03
   39.5586  7.719908E-03
   39.9660  7.778145E-03
   40.3775  7.833829E-03
   40.7932  7.884410E-03
   41.2133  7.935174E-03
   41.6376  7.986232E-03
   42.0663  8.037633E-03
   42.4995  8.089378E-03
   42.9371  8.141470E-03
   43.3792  8.193857E-03
   43.8258  8.248389E-03
   44.2771  8.313863E-03
   44.7330  8.399232E-03
   45.1936  8.499589E-03
   45.6589  8.601177E-03
   46.1291  8.703980E-03
   46.6041  8.808009E-03
   47.0839  8.916181E-03
   47.5687  9.027654E-03
   48.0585  9.143973E-03
   48.5534  9.261830E-03
   49.0533  9.381210E-03
   49.5584  9.502089E-03
   50.0687  9.595908E-03
   50.5842  9.670559E-03
   51.1050  9.703890E-03
   51.6312  9.737353E-03
   52.1629  9.770942E-03
   52.7000  9.804594E-03
   53.2426  9.838369E-03
   53.7908  9.872293E-03
   54.3447  9.884956E-03
   54.9043  9.884313E-03
   55.4696  9.857090E-03
   56.0407  9.829924E-03
   56.6178  9.802825E-03
   57.2007  9.775815E-03
   57.7897  9.748878E-03
   58.3847  9.722012E-03
   58.9859  9.720224E-03
   59.5933  9.736973E-03
   60.2069  9.781144E-03
   60.8268  9.825480E-03
   61.4531  9.870022E-03
   62.0859  9.914792E-03
   62.7251  1.001264E-02
   63.3710  1.014548E-02
   64.0235  1.035168E-02
   64.6827  1.056458E-02
   65.3487  1.078389E-02
   66.0216  1.104767E-02
   66.7014  1.131827E-02
   67.3882  1.159549E-02
   68.0821  1.187951E-02
   68.7831  1.217047E-02
   69.4913  1.246854E-02
   70.2068  1.271029E-02
   70.9297  1.292793E-02
   71.6601  1.312590E-02
   72.3979  1.332685E-02
   73.1434  1.353043E-02
   73.8965  1.372185E-02
   74.6574  1.390234E-02
   75.4261  1.406909E-02
   76.2027  1.423784E-02
   76.9874  1.442176E-02
   77.7801  1.463534E-02
   78.5809  1.490179E-02
   79.3901  1.518895E-02
   80.2075  1.548174E-02
   81.0334  1.578012E-02
   81.8677  1.607150E-02
   82.7107  1.617752E-02
   83.5623  1.609393E-02
   84.4228  1.582141E-02
   85.2920  1.622732E-02
   86.1702  1.670117E-02
   87.0575  1.719760E-02
   87.9539  1.780375E-02
   88.8595  1.845624E-02
   89.7745  1.913271E-02
   90.6988  1.983392E-02
   91.6327  2.057125E-02
   92.5762  2.143444E-02
   93.5295  2.233594E-02
   94.4925  2.327723E-02
   95.4655  2.414490E-02
   96.4484  2.500090E-02
   97.4415  2.582538E-02
   98.4448  2.667705E-02
   99.4585  2.755680E-02
   100.483  2.846562E-02
   101.517  2.946628E-02
   102.562  3.053452E-02
   103.619  3.167560E-02
   104.685  3.285955E-02
   105.763  3.408794E-02
   106.852  3.536186E-02
   107.953  3.660249E-02
   109.064  3.777872E-02
   110.187  3.891692E-02
   111.322  4.007773E-02
   112.468  4.127305E-02
   113.626  4.250405E-02
   114.796  4.377174E-02
   115.978  4.507699E-02
   117.172  4.638193E-02
   118.379  4.769706E-02
   119.597  4.901937E-02
   120.829  5.037830E-02
   122.073  5.177486E-02
   123.330  5.321030E-02
   124.600  5.468542E-02
   125.883  5.620121E-02
   127.179  5.787806E-02
   128.488  5.973111E-02
   129.811  6.199948E-02
   131.148  6.435380E-02
   132.498  6.677033E-02
   133.863  6.893097E-02
   135.241  7.068285E-02
   136.634  7.200846E-02
   138.040  7.335904E-02
   139.462  7.473492E-02
   140.898  7.613658E-02
   142.349  7.756431E-02
   143.814  7.887526E-02
   145.295  7.975656E-02
   146.791  8.026724E-02
   148.303  8.059942E-02
   149.830  8.093305E-02
   151.372  8.126787E-02
   152.931  8.160391E-02
   154.506  8.194185E-02
   156.096  8.220855E-02
   157.704  8.237223E-02
   159.328  8.167174E-02
   160.968  8.082215E-02
   162.626  7.998171E-02
   164.300  7.915054E-02
   165.992  7.832807E-02
   167.701  7.751323E-02
   169.428  7.647570E-02
   171.172  7.527827E-02
   172.935  7.346522E-02
   174.715  7.169531E-02
   176.514  6.996728E-02
   178.332  6.828190E-02
   180.168  6.663720E-02
   182.023  6.503201E-02
   183.897  6.345394E-02
   185.791  6.190866E-02
   187.704  6.039406E-02
   189.637  5.891593E-02
   191.589  5.747367E-02
   193.562  5.606771E-02
   195.555  5.469581E-02
   197.568  5.335714E-02
   199.603  5.207552E-02
   201.658  5.085730E-02
   203.734  4.972273E-02
   205.832  4.861354E-02
   207.952  4.752899E-02
   210.093  4.646824E-02
   212.256  4.544411E-02
   214.441  4.447890E-02
   216.650  4.384051E-02
   218.880  4.321136E-02
   221.134  4.259128E-02
   223.411  4.198045E-02
   225.711  4.137821E-02
   228.035  4.078432E-02
   230.383  4.019913E-02
   232.756  3.964999E-02
   235.152  3.918784E-02
   237.573  3.876494E-02
   240.020  3.836177E-02
   242.491  3.796314E-02
   244.988  3.756849E-02
   247.510  3.717781E-02
   250.059  3.679116E-02
   252.634  3.645382E-02
   255.235  3.618061E-02
   257.863  3.591858E-02
   260.518  3.565995E-02
   263.201  3.540322E-02
   265.911  3.514827E-02
   268.649  3.489515E-02
   271.415  3.464388E-02
   274.209  3.445017E-02
   277.033  3.429782E-02
   279.885  3.422439E-02
   282.767  3.415110E-02
   285.679  3.407794E-02
   288.620  3.400503E-02
   291.592  3.393224E-02
   294.594  3.385946E-02
   297.628  3.378697E-02
   300.692  3.371465E-02
   303.788  3.364240E-02
   306.916  3.357038E-02
   310.077  3.350205E-02
   313.269  3.348622E-02
   316.495  3.347825E-02
   319.754  3.347821E-02
   323.046  3.347822E-02
   326.372  3.347824E-02
   329.733  3.347827E-02
   333.128  3.347825E-02
   336.558  3.347819E-02
   340.024  3.347816E-02
   343.525  3.347820E-02
   347.062  3.347858E-02
   350.635  3.348155E-02
   354.246  3.355402E-02
   357.893  3.368792E-02
   361.578  3.382231E-02
   365.301  3.395724E-02
   369.063  3.409276E-02
   372.863  3.422878E-02
   376.702  3.436533E-02
   380.581  3.450236E-02
   384.499  3.463998E-02
   388.459  3.477818E-02
   392.458  3.491696E-02
   396.499  3.505631E-02
   400.582  3.519635E-02
   404.707  3.540743E-02
   408.874  3.563509E-02
   413.084  3.588416E-02
   417.337  3.613510E-02
   421.634  3.638779E-02
   425.976  3.664219E-02
   430.362  3.689840E-02
   434.793  3.715641E-02
   439.270  3.741628E-02
   443.793  3.767788E-02
   448.362  3.794230E-02
   452.979  3.823473E-02
   457.643  3.854187E-02
   462.355  3.886556E-02
   467.116  3.919192E-02
   471.926  3.952099E-02
   476.785  3.985282E-02
   481.694  4.018752E-02
   486.654  4.052504E-02
   491.665  4.086529E-02
   496.727  4.120842E-02
   501.842  4.155445E-02
   507.009  4.190345E-02
   512.230  4.226002E-02
   517.504  4.262413E-02
   522.832  4.299428E-02
   528.216  4.336786E-02
   533.655  4.374473E-02
   539.150  4.412486E-02
   544.701  4.450829E-02
   550.310  4.489504E-02
   555.976  4.528514E-02
   561.701  4.567908E-02
   567.484  4.608011E-02
   573.327  4.649432E-02
   579.231  4.692038E-02
   585.195  4.735026E-02
   591.220  4.778412E-02
   597.308  4.822200E-02
   603.458  4.866388E-02
   609.672  4.910982E-02
   615.949  4.955982E-02
   622.291  5.001396E-02
   628.699  5.047224E-02
   635.172  5.093472E-02
   641.712  5.140144E-02
   648.320  5.187384E-02
   654.995  5.245067E-02
   661.740  5.307401E-02
   668.553  5.375485E-02
   675.437  5.444427E-02
   682.392  5.514259E-02
   689.418  5.584997E-02
   696.517  5.656632E-02
   703.689  5.729183E-02
   710.934  5.802667E-02
   718.254  5.877092E-02
   725.650  5.952391E-02
   733.122  6.027134E-02
   740.670  6.102787E-02
   748.297  6.179358E-02
   756.002  6.256884E-02
   763.786  6.335385E-02
   771.650  6.414876E-02
   779.596  6.495360E-02
   787.623  6.576859E-02
   795.733  6.659411E-02
   803.926  6.750230E-02
   812.204  6.846191E-02
   820.567  6.943525E-02
   829.016  7.042240E-02
   837.552  7.142354E-02
   846.176  7.243882E-02
   854.888  7.346857E-02
   863.691  7.451300E-02
   872.584  7.557984E-02
   881.569  7.672637E-02
   890.646  7.807662E-02
   899.816  7.945063E-02
   909.081  8.084887E-02
   918.442  8.227166E-02
   927.899  8.371948E-02
   937.453  8.519286E-02
   947.106  8.669213E-02
   956.858  8.825671E-02
   966.710  8.990346E-02
   976.664  9.162388E-02
   986.720  9.338453E-02
   996.880  9.517898E-02
   1007.14  9.700825E-02
   1017.51  9.887273E-02
   1027.99  0.100772
   1038.58  0.102896
   1049.27  0.105201
   1060.07  0.107732
   1070.99  0.110323
   1082.02  0.112978
   1093.16  0.115696
   1104.41  0.118479
   1115.79  0.121330
   1127.27  0.124249
   1138.88  0.127238
   1150.61  0.130300
   1162.46  0.133437
   1174.42  0.136650
   1186.52  0.139940
   1198.73  0.143310
   1211.08  0.146760
   1223.55  0.150214
   1236.15  0.153632
   1248.87  0.156931
   1261.73  0.160300
   1274.72  0.163741
   1287.85  0.167257
   1301.11  0.170848
   1314.51  0.174552
   1328.04  0.178673
   1341.72  0.182930
   1355.53  0.187323
   1369.49  0.191820
   1383.59  0.196426
   1397.84  0.201143
   1412.23  0.205972
   1426.77  0.210791
   1441.46  0.215371
   1456.30  0.220003
   1471.30  0.224718
   1486.45  0.229553
   1501.75  0.235621
   1517.22  0.242732
   1532.84  0.250105
   1548.62  0.257523
   1564.57  0.264922
   1580.68  0.271469
   1596.95  0.277982
   1613.40  0.284576
   1630.01  0.291395
   1646.79  0.298583
   1663.75  0.306847
   1680.88  0.314959
   1698.19  0.322994
   1715.67  0.330328
   1733.34  0.338271
   1751.18  0.346913
   1769.22  0.354428
   1787.43  0.361650
   1805.84  0.368401
   1824.43  0.377197
   1843.22  0.386580
   1862.20  0.395401
   1881.37  0.403518
   1900.74  0.411442
   1920.31  0.421554
   1940.09  0.432584
   1960.06  0.444570
   1980.24  0.455373
   2000.63  0.466146
   2021.23  0.476840
   2042.05  0.488601
   2063.07  0.500992
   2084.31  0.514150
   2105.78  0.527980
   2127.46  0.542318
   2149.36  0.556850
   2171.49  0.572312
   2193.85  0.588670
   2216.44  0.522787
   2239.26  0.417588
   2262.32  0.287999
   2285.62  0.266206
   2309.15  0.249356
   2332.93  0.210323
   2356.95  0.196685
   2381.22  0.192512
   2405.73  0.192803
   2430.51  0.194603
   2455.53  0.197523
   2480.81  0.199921
   2506.36  0.202649
   2532.17  0.205789
   2558.24  0.209906
   2584.58  0.214132
   2611.19  0.218219
   2638.08  0.220557
   2665.24  0.222769
   2692.68  0.227135
   2720.41  0.223431
   2748.42  0.215242
   2776.72  0.213243
   2805.31  0.214229
   2834.20  0.218452
   2863.38  0.222254
   2892.86  0.226226
   2922.65  0.230556
   2952.74  0.235716
   2983.15  0.241144
   3013.86  0.246487
   3044.89  0.251825
   3076.25  0.257242
   3107.92  0.263119
   3139.92  0.266560
   3172.25  0.267660
   3204.92  0.269343
   3237.92  0.272812
   3271.26  0.279152
   3304.94  0.285448
   3338.97  0.291874
   3373.35  0.298535
   3408.08  0.303581
   3443.17  0.307878
   3478.63  0.312086
   3514.45  0.318889
   3550.63  0.327932
   3587.19  0.336272
   3624.13  0.344695
   3661.44  0.353161
   3699.14  0.361746
   3737.23  0.370485
   3775.71  0.379329
   3814.59  0.388742
   3853.87  0.398532
   3893.55  0.408596
   3933.64  0.418875
   3974.14  0.429382
   4015.06  0.440138
   4056.40  0.451366
   4098.17  0.463125
   4140.37  0.474802
   4183.00  0.487649
   4226.07  0.502804
   4269.59  0.514047
   4313.55  0.524758
   4357.96  0.538328
   4402.83  0.551777
   4448.17  0.565314
   4493.97  0.579825
   4540.24  0.594617
   4586.99  0.609692
   4634.22  0.625336
   4681.94  0.641377
   4730.15  0.657800
   4778.85  0.674602
   4828.06  0.691726
   4877.77  0.708951
   4928.00  0.726727
   4978.74  0.744906
   5030.00  0.762537
   5036.95  0.764943
   5043.91  0.767359
   5050.87  0.769781
   5057.85  0.772249
   5064.83  0.774761
   5071.83  0.777281
   5078.84  0.779809
   5085.85  0.782345
   5092.88  0.784888
   5099.91  0.787441
   5106.96  0.790002
   5114.01  0.792572
   5121.07  0.795149
   5128.15  0.797734
   5135.23  0.800329
   5142.32  0.803114
   5149.43  0.805928
   5156.54  0.808754
   5163.66  0.811589
   5170.79  0.814435
   5177.94  0.817289
   5185.09  0.820154
   5192.25  0.823030
   5199.42  0.825914
   5206.60  0.828809
   5213.80  0.831715
   5221.00  0.834416
   5228.21  0.836553
   5235.43  0.838696
   5242.66  0.840844
   5249.90  0.842998
   5257.16  0.845158
   5264.42  0.847322
   5271.69  0.849493
   5278.97  0.851668
   5286.26  0.853850
   5293.56  0.856037
   5300.88  0.858229
   5308.20  0.861144
   5315.53  0.864455
   5322.87  0.867779
   5330.23  0.871117
   5337.59  0.874466
   5344.96  0.877828
   5352.34  0.881204
   5359.74  0.884592
   5367.14  0.887994
   5374.55  0.891408
   5381.98  0.894836
   5389.41  0.898269
   5396.85  0.901401
   5404.31  0.904544
   5411.77  0.907699
   5419.25  0.910864
   5426.73  0.914040
   5434.23  0.917228
   5441.74  0.920426
   5449.25  0.923637
   5456.78  0.926857
   5464.32  0.930088
   5471.87  0.933333
   5479.42  0.936585
   5486.99  0.939846
   5494.57  0.943119
   5502.16  0.946402
   5509.76  0.949698
   5517.37  0.953004
   5524.99  0.956322
   5532.62  0.959653
   5540.27  0.962993
   5547.92  0.966346
   5555.58  0.969711
   5563.26  0.973087
   5570.94  0.976447
   5578.63  0.979809
   5586.34  0.983183
   5594.06  0.986569
   5601.78  0.989966
   5609.52  0.993375
   5617.27  0.996796
   5625.03  1.00023
   5632.80  1.00367
   5640.58  1.00713
   5648.37  1.01060
   5656.17  1.01407
   5663.98  1.01753
   5671.81  1.02100
   5679.64  1.02448
   5687.49  1.02798
   5695.34  1.03148
   5703.21  1.03500
   5711.09  1.03853
   5718.98  1.04207
   5726.88  1.04563
   5734.79  1.04919
   5742.71  1.05277
   5750.64  1.05626
   5758.58  1.05967
   5766.54  1.06310
   5774.50  1.06653
   5782.48  1.06998
   5790.47  1.07344
   5798.46  1.07690
   5806.47  1.08038
   5814.49  1.08387
   5822.52  1.08737
   5830.57  1.09089
   5838.62  1.09441
   5846.69  1.09858
   5854.76  1.10284
   5862.85  1.10711
   5870.95  1.11140
   5879.06  1.11570
   5887.18  1.12002
   5895.31  1.12436
   5903.45  1.12872
   5911.61  1.13309
   5919.77  1.13748
   5927.95  1.14188
   5936.14  1.14607
   5944.34  1.14969
   5952.55  1.15331
   5960.77  1.15695
   5969.00  1.16059
   5977.25  1.16425
   5985.50  1.16792
   5993.77  1.17160
   6002.05  1.17530
   6010.34  1.17900
   6018.64  1.18272
   6026.96  1.18645
   6035.28  1.19055
   6043.62  1.19486
   6051.97  1.19919
   6060.32  1.20353
   6068.70  1.20789
   6077.08  1.21226
   6085.47  1.21665
   6093.88  1.22105
   6102.29  1.22547
   6110.72  1.22991
   6119.16  1.23436
   6127.62  1.23883
   6136.08  1.24330
   6144.56  1.24779
   6153.04  1.25229
   6161.54  1.25681
   6170.05  1.26134
   6178.58  1.26589
   6187.11  1.27046
   6195.66  1.27504
   6204.21  1.27964
   6212.78  1.28426
   6221.37  1.28889
   6229.96  1.29353
   6238.56  1.29816
   6247.18  1.30281
   6255.81  1.30748
   6264.45  1.31217
   6273.10  1.31687
   6281.77  1.32159
   6290.45  1.32632
   6299.14  1.33107
   6307.84  1.33584
   6316.55  1.34063
   6325.27  1.34543
   6334.01  1.35026
   6342.76  1.35510
   6351.52  1.35996
   6360.29  1.36484
   6369.08  1.36974
   6377.88  1.37465
   6386.69  1.37958
   6395.51  1.38453
   6404.34  1.38949
   6413.19  1.39448
   6422.05  1.39948
   6430.92  1.40450
   6439.80  1.40955
   6448.70  1.41462
   6457.60  1.41970
   6466.52  1.42480
   6475.45  1.42992
   6484.40  1.43506
   6493.36  1.44022
   6502.32  1.44539
   6511.31  1.45059
   6520.30  1.45580
   6529.31  1.46103
   6538.33  1.46629
   6547.36  1.47156
   6556.40  1.47685
   6565.46  1.48217
   6574.52  1.48750
   6583.61  1.49286
   6592.70  1.49823
   6601.81  1.50362
   6610.92  1.50903
   6620.06  1.51446
   6629.20  1.51990
   6638.36  1.52537
   6647.53  1.53087
   6656.71  1.53639
   6665.90  1.54192
   6675.11  1.54748
   6684.33  1.55306
   6693.56  1.55865
   6702.81  1.56427
   6712.07  1.56991
   6721.34  1.57556
   6730.62  1.58124
   6739.92  1.58694
   6749.23  1.59266
   6758.55  1.59840
   6767.89  1.60417
   6777.24  1.60995
   6786.60  1.61576
   6795.97  1.62159
   6805.36  1.62743
   6814.76  1.63330
   6824.17  1.63919
   6833.60  1.64511
   6843.04  1.65104
   6852.49  1.65699
   6861.95  1.66297
   6871.43  1.66898
   6880.92  1.67501
   6890.43  1.68106
   6899.95  1.68713
   6909.48  1.69322
   6919.02  1.69933
   6928.58  1.70547
   6938.15  1.71163
   6947.73  1.71781
   6957.33  1.72401
   6966.94  1.73024
   6976.56  1.73650
   6986.20  1.74278
   6995.85  1.74908
   7005.51  1.75540
   7015.19  1.76175
   7024.88  1.76811
   7034.58  1.77451
   7044.30  1.78092
   7054.03  1.78736
   7063.77  1.79382
   7073.53  1.80031
   7083.30  1.80682
   7093.08  1.81336
   7102.88  1.81993
   7112.69  1.82652
   7122.52  1.83314
   7132.35  1.83977
   7142.21  1.84643
   7152.07  1.85312
   7161.95  1.85983
   7171.84  1.86657
   7181.75  1.87333
   7191.67  1.88011
   7201.60  1.88692
   7211.55  1.89375
   7221.51  1.90061
   7231.49  1.90750
   7241.47  1.91441
   7251.48  1.92135
   7261.49  1.92830
   7271.52  1.93529
   7281.57  1.94230
   7291.62  1.94934
   7301.70  1.95640
   7311.78  1.96348
   7321.88  1.97060
   7332.00  1.97774
   7342.12  1.98490
   7352.26  1.99209
   7362.42  1.99932
   7372.59  2.00656
   7382.77  2.01383
   7392.97  2.02113
   7403.18  2.02845
   7413.41  2.03580
   7423.65  2.04317
   7433.90  2.05058
   7444.17  2.05802
   7454.45  2.06548
   7464.75  2.07297
   7475.06  2.08049
   7485.39  2.08804
   7495.72  2.09561
   7506.08  2.10321
   7516.45  2.11084
   7526.83  2.11850
   7537.23  2.12618
   7547.64  2.13389
   7558.06  2.14164
   7568.50  2.14942
   7578.96  2.15722
   7589.42  2.16506
   7599.91  2.17292
   7610.40  2.18082
   7620.92  2.18874
   7631.44  2.19669
   7641.98  2.20467
   7652.54  2.21267
   7663.11  2.22071
   7673.70  2.22878
   7684.29  2.23687
   7694.91  2.24500
   7705.54  2.25315
   7716.18  2.26133
   7726.84  2.26955
   7737.51  2.27779
   7748.20  2.28606
   7758.90  2.29437
   7769.62  2.30270
   7780.35  2.31107
   7791.10  2.31946
   7801.86  2.32789
   7812.64  2.33635
   7823.43  2.34483
   7834.23  2.35335
   7845.06  2.36190
   7855.89  2.37048
   7866.74  2.37909
   7877.61  2.38773
   7888.49  2.39641
   7899.39  2.40512
   7910.30  2.41385
   7921.22  2.42262
   7932.17  2.43142
   7943.12  2.44026
   7954.09  2.44912
   7965.08  2.45802
   7976.08  2.46695
   7987.10  2.47592
   7998.13  2.48491
   8009.18  2.49394
   8020.24  2.50300
   8031.32  2.51210
   8042.41  2.52122
   8053.52  2.53039
   8064.65  2.53958
   8075.79  2.54882
   8086.94  2.55808
   8098.11  2.56738
   8109.30  2.57671
   8120.50  2.58607
   8131.71  2.59547
   8142.95  2.60491
   8154.19  2.61438
   8165.46  2.62388
   8176.74  2.63342
   8188.03  2.64299
   8199.34  2.65260
   8210.67  2.66225
   8222.01  2.67193
   8233.36  2.68165
   8244.74  2.69140
   8256.13  2.70118
   8267.53  2.71101
   8278.95  2.72086
   8290.38  2.73076
   8301.83  2.74069
   8313.30  2.75065
   8324.79  2.76066
   8336.28  2.77071
   8347.80  2.78078
   8359.33  2.79090
   8370.88  2.80106
   8382.44  2.81125
   8394.02  2.82148
   8405.61  2.83174
   8417.22  2.84205
   8428.85  2.85239
   8440.49  2.86276
   8452.15  2.87318
   8463.82  2.88363
   8475.51  2.89413
   8487.22  2.90465
   8498.95  2.91522
   8510.68  2.92583
   8522.44  2.93647
   8534.21  2.94715
   8546.00  2.95787
   8557.80  2.96863
   8569.63  2.97944
   8581.46  2.99027
   8593.32  3.00115
   8605.19  3.01207
   8617.07  3.02302
   8628.97  3.03401
   8640.89  3.04505
   8652.83  3.05612
   8664.78  3.06724
   8676.75  3.07840
   8688.73  3.08959
   8700.74  3.10083
