 Be Density=1.848, Angle=90.deg
 Photon Energy (eV), Atten Length (microns)
   30.0000  0.117143
   30.3089  0.121484
   30.6210  0.125986
   30.9363  0.130654
   31.2548  0.135495
   31.5766  0.140516
   31.9018  0.145723
   32.2302  0.151123
   32.5621  0.156723
   32.8974  0.162531
   33.2361  0.168554
   33.5783  0.174800
   33.9241  0.181041
   34.2734  0.186581
   34.6263  0.191645
   34.9828  0.196480
   35.3430  0.201435
   35.7069  0.206516
   36.0746  0.211725
   36.4460  0.217066
   36.8213  0.222542
   37.2004  0.228155
   37.5835  0.233910
   37.9705  0.239811
   38.3614  0.245860
   38.7564  0.252061
   39.1555  0.256674
   39.5586  0.259288
   39.9660  0.263685
   40.3775  0.267941
   40.7932  0.271877
   41.2133  0.275997
   41.6376  0.281751
   42.0663  0.286317
   42.4995  0.291846
   42.9371  0.295834
   43.3792  0.301704
   43.8258  0.306533
   44.2771  0.311399
   44.7330  0.317413
   45.1936  0.323923
   45.6589  0.330119
   46.1291  0.336587
   46.6041  0.342299
   47.0839  0.348013
   47.5687  0.353781
   48.0585  0.358786
   48.5534  0.362252
   49.0533  0.364603
   49.5584  0.372061
   50.0687  0.375447
   50.5842  0.376796
   51.1050  0.378150
   51.6312  0.379509
   52.1629  0.381513
   52.7000  0.384813
   53.2426  0.388643
   53.7908  0.394816
   54.3447  0.401120
   54.9043  0.405209
   55.4696  0.411933
   56.0407  0.418429
   56.6178  0.427427
   57.2007  0.436096
   57.7897  0.442585
   58.3847  0.451571
   58.9859  0.459515
   59.5933  0.466680
   60.2069  0.472684
   60.8268  0.478649
   61.4531  0.485526
   62.0859  0.489373
   62.7251  0.494380
   63.3710  0.500557
   64.0235  0.503589
   64.6827  0.508696
   65.3487  0.512499
   66.0216  0.518847
   66.7014  0.523339
   67.3882  0.528471
   68.0821  0.534068
   68.7831  0.540368
   69.4913  0.547199
   70.2068  0.557309
   70.9297  0.563145
   71.6601  0.568867
   72.3979  0.574649
   73.1434  0.581413
   73.8965  0.586228
   74.6574  0.592194
   75.4261  0.596926
   76.2027  0.600784
   76.9874  0.604825
   77.7801  0.608405
   78.5809  0.611450
   79.3901  0.615629
   80.2075  0.618651
   81.0334  0.621942
   81.8677  0.625196
   82.7107  0.629496
   83.5623  0.633825
   84.4228  0.639998
   85.2920  0.646193
   86.1702  0.652386
   87.0575  0.659398
   87.9539  0.666662
   88.8595  0.674165
   89.7745  0.681824
   90.6988  0.689599
   91.6327  0.697482
   92.5762  0.705459
   93.5295  0.713495
   94.4925  0.721002
   95.4655  0.728568
   96.4484  0.736190
   97.4415  0.743897
   98.4448  0.748515
   99.4585  0.758839
   100.483  0.766564
   101.517  0.775012
   102.562  0.782828
   103.619  0.790283
   104.685  0.799125
   105.763  0.809358
   106.852  0.813768
   107.953  0.806133
   109.064  0.789237
   110.187  0.743812
   111.322  0.663010
   112.468  8.415706E-02
   113.626  3.295596E-02
   114.796  4.348238E-02
   115.978  4.097697E-02
   117.172  3.669886E-02
   118.379  2.859581E-02
   119.597  2.908498E-02
   120.829  2.808213E-02
   122.073  2.570925E-02
   123.330  2.624358E-02
   124.600  2.368276E-02
   125.883  2.185003E-02
   127.179  2.354739E-02
   128.488  2.968256E-02
   129.811  3.792597E-02
   131.148  4.701405E-02
   132.498  5.158283E-02
   133.863  5.283022E-02
   135.241  5.331335E-02
   136.634  5.396770E-02
   138.040  5.566885E-02
   139.462  5.685760E-02
   140.898  5.683905E-02
   142.349  5.666978E-02
   143.814  5.709345E-02
   145.295  5.800150E-02
   146.791  5.861350E-02
   148.303  5.842699E-02
   149.830  5.826377E-02
   151.372  5.884995E-02
   152.931  5.885293E-02
   154.506  5.878113E-02
   156.096  5.812937E-02
   157.704  5.745523E-02
   159.328  5.783422E-02
   160.968  5.871016E-02
   162.626  6.068739E-02
   164.300  6.440403E-02
   165.992  6.826939E-02
   167.701  7.252289E-02
   169.428  7.625607E-02
   171.172  7.860760E-02
   172.935  8.096801E-02
   174.715  8.342468E-02
   176.514  8.649796E-02
   178.332  9.075436E-02
   180.168  9.367289E-02
   182.023  9.543209E-02
   183.897  9.705946E-02
   185.791  9.875868E-02
   187.704  0.100579
   189.637  0.101645
   191.589  0.103083
   193.562  0.104747
   195.555  0.107129
   197.568  0.109421
   199.603  0.110852
   201.658  0.112705
   203.734  0.114062
   205.832  0.116055
   207.952  0.118697
   210.093  0.121411
   212.256  0.124391
   214.441  0.127783
   216.650  0.130604
   218.880  0.134013
   221.134  0.136640
   223.411  0.140476
   225.711  0.143006
   228.035  0.147343
   230.383  0.153060
   232.756  0.159167
   235.152  0.165060
   237.573  0.168833
   240.020  0.172627
   242.491  0.177238
   244.988  0.182491
   247.510  0.184925
   250.059  0.186959
   252.634  0.191384
   255.235  0.196666
   257.863  0.202091
   260.518  0.207667
   263.201  0.213398
   265.911  0.219286
   268.649  0.225337
   271.415  0.231555
   274.209  0.237945
   277.033  0.244511
   279.885  0.251258
   282.767  0.258191
   285.679  0.265315
   288.620  0.272635
   291.592  0.280158
   294.594  0.287890
   297.628  0.295834
   300.692  0.303997
   303.788  0.312387
   306.916  0.321006
   310.077  0.329862
   313.269  0.338965
   316.495  0.348233
   319.754  0.357662
   323.046  0.367350
   326.372  0.377298
   329.733  0.387514
   333.128  0.398008
   336.558  0.408787
   340.024  0.419856
   343.525  0.431227
   347.062  0.442906
   350.635  0.454899
   354.246  0.467218
   357.893  0.479870
   361.578  0.492866
   365.301  0.506214
   369.063  0.519922
   372.863  0.534003
   376.702  0.548465
   380.581  0.563318
   384.499  0.578573
   388.459  0.594334
   392.458  0.611140
   396.499  0.628422
   400.582  0.646193
   404.707  0.665041
   408.874  0.684438
   413.084  0.704400
   417.337  0.724944
   421.634  0.746089
   425.976  0.767851
   430.362  0.790246
   434.793  0.813294
   439.270  0.837015
   443.793  0.861428
   448.362  0.886554
   452.979  0.912410
   457.643  0.939022
   462.355  0.966411
   467.116  0.994598
   471.926  1.02361
   476.785  1.05346
   481.694  1.08419
   486.654  1.11581
   491.665  1.14836
   496.727  1.18185
   501.842  1.21632
   507.009  1.25180
   512.230  1.28831
   517.504  1.32588
   522.832  1.36455
   528.216  1.40435
   533.655  1.44531
   539.150  1.48747
   544.701  1.53085
   550.310  1.57550
   555.976  1.62145
   561.701  1.66887
   567.484  1.71877
   573.327  1.77016
   579.231  1.82309
   585.195  1.87759
   591.220  1.93373
   597.308  1.99154
   603.458  2.05109
   609.672  2.11241
   615.949  2.17557
   622.291  2.24061
   628.699  2.30760
   635.172  2.37660
   641.712  2.45012
   648.320  2.52778
   654.995  2.60789
   661.740  2.69053
   668.553  2.77580
   675.437  2.85954
   682.392  2.94366
   689.418  3.02679
   696.517  3.11226
   703.689  3.20124
   710.934  3.29780
   718.254  3.39727
   725.650  3.49984
   733.122  3.60736
   740.670  3.71818
   748.297  3.83242
   756.002  3.95016
   763.786  4.07153
   771.650  4.19661
   779.596  4.32554
   787.623  4.45843
   795.733  4.59541
   803.926  4.73659
   812.204  4.88209
   820.567  5.03208
   829.016  5.18669
   837.552  5.34606
   846.176  5.51029
   854.888  5.67957
   863.691  5.85406
   872.584  6.03390
   881.569  6.21900
   890.646  6.40895
   899.816  6.60469
   909.081  6.80640
   918.442  7.01432
   927.899  7.22855
   937.453  7.44931
   947.106  7.68015
   956.858  7.91819
   966.710  8.16360
   976.664  8.41657
   986.720  8.67740
   996.880  8.94637
   1007.14  9.22361
   1017.51  9.50943
   1027.99  9.80415
   1038.58  10.1080
   1049.27  10.4212
   1060.07  10.7443
   1070.99  11.0773
   1082.02  11.4206
   1093.16  11.7745
   1104.41  12.1394
   1115.79  12.5155
   1127.27  12.9034
   1138.88  13.3033
   1150.61  13.7157
   1162.46  14.1408
   1174.42  14.5790
   1186.52  15.0307
   1198.73  15.4965
   1211.08  15.9767
   1223.55  16.4719
   1236.15  16.9823
   1248.87  17.5086
   1261.73  18.0512
   1274.72  18.6106
   1287.85  19.1873
   1301.11  19.7819
   1314.51  20.3949
   1328.04  21.0270
   1341.72  21.6786
   1355.53  22.3504
   1369.49  23.0435
   1383.59  23.7582
   1397.84  24.4953
   1412.23  25.2550
   1426.77  26.0382
   1441.46  26.8457
   1456.30  27.6784
   1471.30  28.5370
   1486.45  29.4219
   1501.75  30.3344
   1517.22  31.2752
   1532.84  32.2663
   1548.62  33.2888
   1564.57  34.3434
   1580.68  35.4315
   1596.95  36.5541
   1613.40  37.7121
   1630.01  38.9068
   1646.79  40.1393
   1663.75  41.4109
   1680.88  42.7229
   1698.19  44.0766
   1715.67  45.4728
   1733.34  46.9133
   1751.18  48.3993
   1769.22  49.9325
   1787.43  51.5142
   1805.84  53.1459
   1824.43  54.8291
   1843.22  56.5656
   1862.20  58.3571
   1881.37  60.2054
   1900.74  62.1121
   1920.31  64.0791
   1940.09  66.1082
   1960.06  68.2014
   1980.24  70.3611
   2000.63  72.5892
   2021.23  74.8880
   2042.05  77.2989
   2063.07  79.7971
   2084.31  82.3764
   2105.78  85.0385
   2127.46  87.7864
   2149.36  90.6234
   2171.49  93.5517
   2193.85  96.5745
   2216.44  99.6948
   2239.26  102.916
   2262.32  106.240
   2285.62  109.673
   2309.15  113.216
   2332.93  116.872
   2356.95  120.647
   2381.22  124.544
   2405.73  128.566
   2430.51  132.717
   2455.53  137.002
   2480.81  141.426
   2506.36  145.991
   2532.17  150.704
   2558.24  155.568
   2584.58  160.589
   2611.19  165.771
   2638.08  171.120
   2665.24  176.642
   2692.68  182.340
   2720.41  188.222
   2748.42  194.294
   2776.72  200.560
   2805.31  207.027
   2834.20  213.701
   2863.38  220.590
   2892.86  227.700
   2922.65  235.037
   2952.74  242.610
   2983.15  250.425
   3013.86  258.493
   3044.89  266.924
   3076.25  275.686
   3107.92  284.733
   3139.92  294.075
   3172.25  303.724
   3204.92  313.685
   3237.92  323.971
   3271.26  334.591
   3304.94  345.557
   3338.97  356.882
   3373.35  368.574
   3408.08  380.648
   3443.17  393.112
   3478.63  405.983
   3514.45  419.271
   3550.63  432.991
   3587.19  447.154
   3624.13  461.777
   3661.44  476.872
   3699.14  492.456
   3737.23  508.545
   3775.71  525.152
   3814.59  542.296
   3853.87  559.991
   3893.55  578.256
   3933.64  597.110
   3974.14  616.570
   4015.06  636.658
   4056.40  657.395
   4098.17  678.799
   4140.37  701.121
   4183.00  724.195
   4226.07  748.015
   4269.59  772.605
   4313.55  797.990
   4357.96  824.191
   4402.83  851.240
   4448.17  879.157
   4493.97  907.973
   4540.24  937.713
   4586.99  968.403
   4634.22  1000.08
   4681.94  1032.76
   4730.15  1066.49
   4778.85  1101.29
   4828.06  1137.20
   4877.77  1174.24
   4928.00  1212.46
   4978.74  1251.89
   5030.00  1292.56
   5036.95  1298.14
   5043.91  1303.74
   5050.87  1309.36
   5057.85  1315.01
   5064.83  1320.69
   5071.83  1326.38
   5078.84  1332.10
   5085.85  1337.84
   5092.88  1343.61
   5099.91  1349.40
   5106.96  1355.22
   5114.01  1361.06
   5121.07  1366.92
   5128.15  1372.81
   5135.23  1378.73
   5142.32  1384.66
   5149.43  1390.62
   5156.54  1396.61
   5163.66  1402.62
   5170.79  1408.66
   5177.94  1414.72
   5185.09  1420.81
   5192.25  1426.92
   5199.42  1433.06
   5206.60  1439.22
   5213.80  1445.41
   5221.00  1451.64
   5228.21  1457.94
   5235.43  1464.26
   5242.66  1470.61
   5249.90  1476.99
   5257.16  1483.39
   5264.42  1489.82
   5271.69  1496.27
   5278.97  1502.76
   5286.26  1509.27
   5293.56  1515.81
   5300.88  1522.37
   5308.20  1528.96
   5315.53  1535.58
   5322.87  1542.23
   5330.23  1548.90
   5337.59  1555.60
   5344.96  1562.33
   5352.34  1569.09
   5359.74  1575.88
   5367.14  1582.70
   5374.55  1589.54
   5381.98  1596.41
   5389.41  1603.31
   5396.85  1610.24
   5404.31  1617.20
   5411.77  1624.19
   5419.25  1631.20
   5426.73  1638.25
   5434.23  1645.32
   5441.74  1652.43
   5449.25  1659.56
   5456.78  1666.72
   5464.32  1673.91
   5471.87  1681.14
   5479.42  1688.39
   5486.99  1695.67
   5494.57  1702.98
   5502.16  1710.32
   5509.76  1717.70
   5517.37  1725.10
   5524.99  1732.53
   5532.62  1739.99
   5540.27  1747.49
   5547.92  1755.01
   5555.58  1762.57
   5563.26  1770.15
   5570.94  1777.78
   5578.63  1785.42
   5586.34  1793.10
   5594.06  1800.82
   5601.78  1808.56
   5609.52  1816.34
   5617.27  1824.15
   5625.03  1831.99
   5632.80  1839.86
   5640.58  1847.77
   5648.37  1855.70
   5656.17  1863.67
   5663.98  1871.67
   5671.81  1879.71
   5679.64  1887.78
   5687.49  1895.88
   5695.34  1904.01
   5703.21  1912.18
   5711.09  1920.38
   5718.98  1928.62
   5726.88  1936.88
   5734.79  1945.19
   5742.71  1953.52
   5750.64  1961.89
   5758.58  1970.29
   5766.54  1978.73
   5774.50  1987.20
   5782.48  1995.71
   5790.47  2004.25
   5798.46  2012.82
   5806.47  2021.44
   5814.49  2030.08
   5822.52  2038.76
   5830.57  2047.47
   5838.62  2056.22
   5846.69  2065.01
   5854.76  2073.83
   5862.85  2082.69
   5870.95  2091.59
   5879.06  2100.52
   5887.18  2109.48
   5895.31  2118.48
   5903.45  2127.52
   5911.61  2136.60
   5919.77  2145.71
   5927.95  2154.86
   5936.14  2164.04
   5944.34  2173.26
   5952.55  2182.52
   5960.77  2191.82
   5969.00  2201.15
   5977.25  2210.52
   5985.50  2219.93
   5993.77  2229.37
   6002.05  2238.86
   6010.34  2248.38
   6018.64  2257.94
   6026.96  2267.55
   6035.28  2277.19
   6043.62  2286.86
   6051.97  2296.58
   6060.32  2306.34
   6068.70  2316.13
   6077.08  2325.96
   6085.47  2335.84
   6093.88  2345.75
   6102.29  2355.70
   6110.72  2365.69
   6119.16  2375.72
   6127.62  2385.79
   6136.08  2395.91
   6144.56  2406.06
   6153.04  2416.25
   6161.54  2426.48
   6170.05  2436.75
   6178.58  2447.07
   6187.11  2457.42
   6195.66  2467.82
   6204.21  2478.26
   6212.78  2488.73
   6221.37  2499.25
   6229.96  2509.81
   6238.56  2520.41
   6247.18  2531.06
   6255.81  2541.74
   6264.45  2552.47
   6273.10  2563.24
   6281.77  2574.06
   6290.45  2584.91
   6299.14  2595.81
   6307.84  2606.75
   6316.55  2617.73
   6325.27  2628.76
   6334.01  2639.89
   6342.76  2651.09
   6351.52  2662.32
   6360.29  2673.60
   6369.08  2684.93
   6377.88  2696.29
   6386.69  2707.70
   6395.51  2719.17
   6404.34  2730.67
   6413.19  2742.21
   6422.05  2753.81
   6430.92  2765.45
   6439.80  2777.14
   6448.70  2788.87
   6457.60  2800.64
   6466.52  2812.46
   6475.45  2824.33
   6484.40  2836.24
   6493.36  2848.21
   6502.32  2860.21
   6511.31  2872.27
   6520.30  2884.37
   6529.31  2896.51
   6538.33  2908.71
   6547.36  2920.95
   6556.40  2933.24
   6565.46  2945.58
   6574.52  2957.96
   6583.61  2970.40
   6592.70  2982.88
   6601.81  2995.41
   6610.92  3007.99
   6620.06  3020.61
   6629.20  3033.29
   6638.36  3046.01
   6647.53  3058.78
   6656.71  3071.61
   6665.90  3084.48
   6675.11  3097.39
   6684.33  3110.37
   6693.56  3123.38
   6702.81  3136.45
   6712.07  3149.57
   6721.34  3162.74
   6730.62  3175.96
   6739.92  3189.23
   6749.23  3202.54
   6758.55  3215.92
   6767.89  3229.34
   6777.24  3242.81
   6786.60  3256.34
   6795.97  3269.91
   6805.36  3283.54
   6814.76  3297.22
   6824.17  3310.95
   6833.60  3324.74
   6843.04  3338.57
   6852.49  3352.45
   6861.95  3366.40
   6871.43  3380.38
   6880.92  3394.43
   6890.43  3408.53
   6899.95  3422.67
   6909.48  3436.88
   6919.02  3451.13
   6928.58  3465.44
   6938.15  3479.80
   6947.73  3494.22
   6957.33  3508.69
   6966.94  3523.21
   6976.56  3537.79
   6986.20  3552.43
   6995.85  3567.11
   7005.51  3581.85
   7015.19  3596.65
   7024.88  3611.50
   7034.58  3626.40
   7044.30  3641.37
   7054.03  3656.38
   7063.77  3671.45
   7073.53  3686.58
   7083.30  3701.76
   7093.08  3717.01
   7102.88  3732.30
   7112.69  3747.65
   7122.52  3763.07
   7132.35  3778.53
   7142.21  3794.05
   7152.07  3809.63
   7161.95  3825.27
   7171.84  3840.96
   7181.75  3856.71
   7191.67  3872.52
   7201.60  3888.39
   7211.55  3904.30
   7221.51  3920.28
   7231.49  3936.32
   7241.47  3952.41
   7251.48  3968.57
   7261.49  3984.78
   7271.52  4001.04
   7281.57  4017.38
   7291.62  4033.76
   7301.70  4050.20
   7311.78  4066.71
   7321.88  4083.28
   7332.00  4099.91
   7342.12  4116.59
   7352.26  4133.33
   7362.42  4150.13
   7372.59  4166.99
   7382.77  4183.91
   7392.97  4200.90
   7403.18  4217.94
   7413.41  4235.04
   7423.65  4252.21
   7433.90  4269.43
   7444.17  4286.73
   7454.45  4304.07
   7464.75  4321.47
   7475.06  4338.95
   7485.39  4356.48
   7495.72  4374.07
   7506.08  4391.73
   7516.45  4409.44
   7526.83  4427.22
   7537.23  4445.06
   7547.64  4462.96
   7558.06  4480.93
   7568.50  4498.95
   7578.96  4517.04
   7589.42  4535.20
   7599.91  4553.41
   7610.40  4571.69
   7620.92  4590.03
   7631.44  4608.43
   7641.98  4626.91
   7652.54  4645.44
   7663.11  4664.03
   7673.70  4682.69
   7684.29  4701.42
   7694.91  4720.21
   7705.54  4739.07
   7716.18  4757.98
   7726.84  4776.98
   7737.51  4796.02
   7748.20  4815.13
   7758.90  4834.32
   7769.62  4853.55
   7780.35  4872.86
   7791.10  4892.24
   7801.86  4911.68
   7812.64  4931.18
   7823.43  4950.74
   7834.23  4970.37
   7845.06  4990.08
   7855.89  5009.84
   7866.74  5029.67
   7877.61  5049.57
   7888.49  5069.53
   7899.39  5089.56
   7910.30  5109.65
   7921.22  5129.81
   7932.17  5150.04
   7943.12  5170.34
   7954.09  5190.69
   7965.08  5211.13
   7976.08  5231.62
   7987.10  5252.19
   7998.13  5272.81
   8009.18  5293.54
   8020.24  5314.34
   8031.32  5335.20
   8042.41  5356.14
   8053.52  5377.15
   8064.65  5398.22
   8075.79  5419.38
   8086.94  5440.59
   8098.11  5461.87
   8109.30  5483.23
   8120.50  5504.64
   8131.71  5526.13
   8142.95  5547.70
   8154.19  5569.32
   8165.46  5591.03
   8176.74  5612.79
   8188.03  5634.63
   8199.34  5656.54
   8210.67  5678.51
   8222.01  5700.54
   8233.36  5722.67
   8244.74  5744.85
   8256.13  5767.10
   8267.53  5789.42
   8278.95  5811.82
   8290.38  5834.29
   8301.83  5856.82
   8313.30  5879.46
   8324.79  5902.32
   8336.28  5925.25
   8347.80  5948.25
   8359.33  5971.33
   8370.88  5994.47
   8382.44  6017.70
   8394.02  6040.99
   8405.61  6064.35
   8417.22  6087.79
   8428.85  6111.30
   8440.49  6134.88
   8452.15  6158.54
   8463.82  6182.27
   8475.51  6206.08
   8487.22  6229.94
   8498.95  6253.89
   8510.68  6277.92
   8522.44  6302.00
   8534.21  6326.17
   8546.00  6350.42
   8557.80  6374.73
   8569.63  6399.12
   8581.46  6423.58
   8593.32  6448.11
   8605.19  6472.73
   8617.07  6497.40
   8628.97  6522.15
   8640.89  6546.99
   8652.83  6571.89
   8664.78  6596.88
   8676.75  6621.93
   8688.73  6647.05
   8700.74  6672.26
   8712.75  6697.53
   8724.79  6722.87
   8736.84  6748.30
   8748.91  6773.80
   8760.99  6799.37
   8773.09  6825.02
   8785.21  6850.73
   8797.35  6876.53
   8809.50  6902.40
   8821.67  6928.34
   8833.85  6954.37
   8846.05  6980.46
   8858.27  7006.62
   8870.51  7032.87
   8882.76  7059.19
   8895.03  7085.59
   8907.32  7112.06
   8919.62  7138.60
   8931.94  7165.22
   8944.28  7191.91
   8956.63  7218.68
   8969.00  7245.53
   8981.39  7272.44
   8993.80  7299.44
   9006.22  7326.50
   9018.66  7353.64
   9031.12  7380.86
   9043.59  7408.14
   9056.08  7435.50
   9068.59  7462.94
   9081.12  7490.45
   9093.66  7518.05
   9106.22  7545.70
   9118.80  7573.43
   9131.40  7601.25
   9144.01  7629.14
   9156.64  7657.09
   9169.29  7685.13
   9181.95  7713.24
   9194.64  7741.42
   9207.34  7769.69
   9220.05  7798.03
   9232.79  7826.44
   9245.54  7854.92
   9258.31  7883.48
   9271.10  7912.12
   9283.91  7940.82
   9296.73  7969.60
   9309.57  7998.46
   9322.43  8027.39
   9335.31  8056.40
   9348.20  8085.47
   9361.12  8114.62
   9374.05  8143.86
   9386.99  8173.15
   9399.96  8202.52
   9412.94  8231.98
   9425.95  8261.50
   9438.97  8291.10
   9452.00  8320.77
   9465.06  8350.50
   9478.13  8380.33
   9491.23  8410.21
   9504.34  8440.17
   9517.46  8470.22
   9530.61  8500.32
   9543.77  8530.51
   9556.96  8560.77
   9570.16  8591.09
   9583.38  8621.50
   9596.61  8651.97
   9609.87  8682.51
   9623.14  8713.14
   9636.44  8743.83
