 Cu Density=8.96, Angle=90.deg
 Photon Energy (eV), Atten Length (microns)
   30.0000  1.045205E-02
   30.3089  1.043604E-02
   30.6210  1.042007E-02
   30.9363  1.040605E-02
   31.2548  1.039847E-02
   31.5766  1.051649E-02
   31.9018  1.063585E-02
   32.2302  1.075657E-02
   32.5621  1.087865E-02
   32.8974  1.100334E-02
   33.2361  1.113187E-02
   33.5783  1.132550E-02
   33.9241  1.154141E-02
   34.2734  1.176145E-02
   34.6263  1.198567E-02
   34.9828  1.221415E-02
   35.3430  1.244699E-02
   35.7069  1.268428E-02
   36.0746  1.292610E-02
   36.4460  1.317253E-02
   36.8213  1.339035E-02
   37.2004  1.355599E-02
   37.5835  1.366592E-02
   37.9705  1.376317E-02
   38.3614  1.386114E-02
   38.7564  1.395978E-02
   39.1555  1.405911E-02
   39.5586  1.415917E-02
   39.9660  1.425993E-02
   40.3775  1.436140E-02
   40.7932  1.446362E-02
   41.2133  1.453521E-02
   41.6376  1.456247E-02
   42.0663  1.456548E-02
   42.4995  1.456410E-02
   42.9371  1.456273E-02
   43.3792  1.456136E-02
   43.8258  1.455998E-02
   44.2771  1.455861E-02
   44.7330  1.455724E-02
   45.1936  1.455586E-02
   45.6589  1.455451E-02
   46.1291  1.455314E-02
   46.6041  1.455174E-02
   47.0839  1.456552E-02
   47.5687  1.458515E-02
   48.0585  1.461305E-02
   48.5534  1.464102E-02
   49.0533  1.466904E-02
   49.5584  1.469713E-02
   50.0687  1.472527E-02
   50.5842  1.475347E-02
   51.1050  1.478170E-02
   51.6312  1.480999E-02
   52.1629  1.483832E-02
   52.7000  1.486671E-02
   53.2426  1.489434E-02
   53.7908  1.492054E-02
   54.3447  1.494442E-02
   54.9043  1.496771E-02
   55.4696  1.499104E-02
   56.0407  1.501440E-02
   56.6178  1.503779E-02
   57.2007  1.506123E-02
   57.7897  1.508471E-02
   58.3847  1.510822E-02
   58.9859  1.513175E-02
   59.5933  1.515552E-02
   60.2069  1.517964E-02
   60.8268  1.521412E-02
   61.4531  1.525091E-02
   62.0859  1.528780E-02
   62.7251  1.532479E-02
   63.3710  1.536187E-02
   64.0235  1.539903E-02
   64.6827  1.543628E-02
   65.3487  1.547362E-02
   66.0216  1.551106E-02
   66.7014  1.554858E-02
   67.3882  1.558620E-02
   68.0821  1.562390E-02
   68.7831  1.567134E-02
   69.4913  1.574233E-02
   70.2068  1.581640E-02
   70.9297  1.589187E-02
   71.6601  1.596769E-02
   72.3979  1.604388E-02
   73.1434  1.612042E-02
   73.8965  1.619733E-02
   74.6574  1.627461E-02
   75.4261  1.635226E-02
   76.2027  1.643028E-02
   76.9874  1.650775E-02
   77.7801  1.658372E-02
   78.5809  1.665530E-02
   79.3901  1.672570E-02
   80.2075  1.679640E-02
   81.0334  1.686740E-02
   81.8677  1.693872E-02
   82.7107  1.701033E-02
   83.5623  1.708224E-02
   84.4228  1.715446E-02
   85.2920  1.720852E-02
   86.1702  1.725680E-02
   87.0575  1.729720E-02
   87.9539  1.733768E-02
   88.8595  1.737825E-02
   89.7745  1.741894E-02
   90.6988  1.745971E-02
   91.6327  1.750059E-02
   92.5762  1.754155E-02
   93.5295  1.758261E-02
   94.4925  1.762376E-02
   95.4655  1.765458E-02
   96.4484  1.768396E-02
   97.4415  1.771169E-02
   98.4448  1.773947E-02
   99.4585  1.776729E-02
   100.483  1.779514E-02
   101.517  1.782302E-02
   102.562  1.785096E-02
   103.619  1.787900E-02
   104.685  1.790704E-02
   105.763  1.793510E-02
   106.852  1.796872E-02
   107.953  1.800613E-02
   109.064  1.804844E-02
   110.187  1.809091E-02
   111.322  1.813348E-02
   112.468  1.817617E-02
   113.626  1.821895E-02
   114.796  1.826182E-02
   115.978  1.830475E-02
   117.172  1.834782E-02
   118.379  1.839102E-02
   119.597  1.843422E-02
   120.829  1.847866E-02
   122.073  1.852449E-02
   123.330  1.861531E-02
   124.600  1.871121E-02
   125.883  1.880759E-02
   127.179  1.890443E-02
   128.488  1.900177E-02
   129.811  1.909967E-02
   131.148  1.919805E-02
   132.498  1.929693E-02
   133.863  1.939640E-02
   135.241  1.949631E-02
   136.634  1.959666E-02
   138.040  1.969757E-02
   139.462  1.979904E-02
   140.898  1.990107E-02
   142.349  2.000361E-02
   143.814  2.010856E-02
   145.295  2.021987E-02
   146.791  2.039725E-02
   148.303  2.060772E-02
   149.830  2.082046E-02
   151.372  2.103533E-02
   152.931  2.125237E-02
   154.506  2.147165E-02
   156.096  2.169319E-02
   157.704  2.191702E-02
   159.328  2.214316E-02
   160.968  2.237166E-02
   162.626  2.260260E-02
   164.300  2.283585E-02
   165.992  2.307147E-02
   167.701  2.330952E-02
   169.428  2.355002E-02
   171.172  2.379441E-02
   172.935  2.413532E-02
   174.715  2.449207E-02
   176.514  2.486780E-02
   178.332  2.524926E-02
   180.168  2.563659E-02
   182.023  2.602988E-02
   183.897  2.642916E-02
   185.791  2.683454E-02
   187.704  2.724609E-02
   189.637  2.766410E-02
   191.589  2.808860E-02
   193.562  2.851938E-02
   195.555  2.895679E-02
   197.568  2.940093E-02
   199.603  2.989745E-02
   201.658  3.041426E-02
   203.734  3.095456E-02
   205.832  3.150440E-02
   207.952  3.206399E-02
   210.093  3.263353E-02
   212.256  3.321315E-02
   214.441  3.380106E-02
   216.650  3.437789E-02
   218.880  3.496351E-02
   221.134  3.555812E-02
   223.411  3.616285E-02
   225.711  3.677790E-02
   228.035  3.740347E-02
   230.383  3.803966E-02
   232.756  3.868668E-02
   235.152  3.934468E-02
   237.573  4.001382E-02
   240.020  4.069430E-02
   242.491  4.138637E-02
   244.988  4.211188E-02
   247.510  4.286767E-02
   250.059  4.364047E-02
   252.634  4.442719E-02
   255.235  4.522799E-02
   257.863  4.604333E-02
   260.518  4.687338E-02
   263.201  4.771838E-02
   265.911  4.857856E-02
   268.649  4.945425E-02
   271.415  5.034577E-02
   274.209  5.125336E-02
   277.033  5.217731E-02
   279.885  5.311785E-02
   282.767  5.407538E-02
   285.679  5.505018E-02
   288.620  5.604256E-02
   291.592  5.705281E-02
   294.594  5.808129E-02
   297.628  5.912830E-02
   300.692  6.019689E-02
   303.788  6.129634E-02
   306.916  6.245358E-02
   310.077  6.365533E-02
   313.269  6.488042E-02
   316.495  6.612904E-02
   319.754  6.740166E-02
   323.046  6.869882E-02
   326.372  7.002088E-02
   329.733  7.136827E-02
   333.128  7.274175E-02
   336.558  7.414169E-02
   340.024  7.556859E-02
   343.525  7.702284E-02
   347.062  7.850498E-02
   350.635  8.001582E-02
   354.246  8.155569E-02
   357.893  8.312515E-02
   361.578  8.474401E-02
   365.301  8.639944E-02
   369.063  8.809387E-02
   372.863  8.982129E-02
   376.702  9.158251E-02
   380.581  9.337841E-02
   384.499  9.520956E-02
   388.459  9.707664E-02
   392.458  9.898014E-02
   396.499  0.100921
   400.582  0.102900
   404.707  0.104918
   408.874  0.107048
   413.084  0.109318
   417.337  0.111839
   421.634  0.114448
   425.976  0.117119
   430.362  0.119852
   434.793  0.122648
   439.270  0.125510
   443.793  0.128439
   448.362  0.131436
   452.979  0.134503
   457.643  0.137577
   462.355  0.140648
   467.116  0.143358
   471.926  0.146075
   476.785  0.148843
   481.694  0.151664
   486.654  0.154538
   491.665  0.157466
   496.727  0.160450
   501.842  0.163499
   507.009  0.166708
   512.230  0.170159
   517.504  0.173860
   522.832  0.177642
   528.216  0.181506
   533.655  0.185454
   539.150  0.189488
   544.701  0.193610
   550.310  0.197821
   555.976  0.202124
   561.701  0.206520
   567.484  0.211012
   573.327  0.215602
   579.231  0.220292
   585.195  0.225374
   591.220  0.230636
   597.308  0.236101
   603.458  0.241695
   609.672  0.247422
   615.949  0.253285
   622.291  0.259286
   628.699  0.265429
   635.172  0.271719
   641.712  0.278218
   648.320  0.284922
   654.995  0.292078
   661.740  0.299413
   668.553  0.306934
   675.437  0.314643
   682.392  0.322546
   689.418  0.330647
   696.517  0.338951
   703.689  0.347313
   710.934  0.355191
   718.254  0.362774
   725.650  0.370219
   733.122  0.377816
   740.670  0.385569
   748.297  0.393482
   756.002  0.401557
   763.786  0.409796
   771.650  0.418205
   779.596  0.427167
   787.623  0.436648
   795.733  0.447140
   803.926  0.457884
   812.204  0.468886
   820.567  0.480153
   829.016  0.491690
   837.552  0.503504
   846.176  0.515602
   854.888  0.529348
   863.691  0.545670
   872.584  0.562901
   881.569  0.580494
   890.646  0.597817
   899.816  0.614114
   909.081  0.632662
   918.442  0.670713
   927.899  0.711053
   937.453  8.634344E-02
   947.106  8.893155E-02
   956.858  9.159741E-02
   966.710  9.434342E-02
   976.664  9.717014E-02
   986.720  0.100081
   996.880  0.103080
   1007.14  0.106168
   1017.51  0.109349
   1027.99  0.112626
   1038.58  0.115605
   1049.27  0.118364
   1060.07  0.120445
   1070.99  0.122561
   1082.02  0.124715
   1093.16  0.126907
   1104.41  0.129137
   1115.79  0.131406
   1127.27  0.133716
   1138.88  0.136066
   1150.61  0.138457
   1162.46  0.140890
   1174.42  0.143365
   1186.52  0.145885
   1198.73  0.148449
   1211.08  0.151058
   1223.55  0.153712
   1236.15  0.156541
   1248.87  0.159649
   1261.73  0.163159
   1274.72  0.166961
   1287.85  0.171281
   1301.11  0.175711
   1314.51  0.180257
   1328.04  0.184919
   1341.72  0.189702
   1355.53  0.194610
   1369.49  0.199645
   1383.59  0.204810
   1397.84  0.210106
   1412.23  0.215541
   1426.77  0.221117
   1441.46  0.226838
   1456.30  0.232708
   1471.30  0.238731
   1486.45  0.244915
   1501.75  0.251271
   1517.22  0.257800
   1532.84  0.264502
   1548.62  0.271377
   1564.57  0.278430
   1580.68  0.285667
   1596.95  0.293093
   1613.40  0.300712
   1630.01  0.308530
   1646.79  0.316551
   1663.75  0.324780
   1680.88  0.333222
   1698.19  0.341884
   1715.67  0.350771
   1733.34  0.359954
   1751.18  0.369451
   1769.22  0.379245
   1787.43  0.389318
   1805.84  0.399687
   1824.43  0.410330
   1843.22  0.421256
   1862.20  0.432469
   1881.37  0.443980
   1900.74  0.455797
   1920.31  0.467936
   1940.09  0.480397
   1960.06  0.493190
   1980.24  0.506316
   2000.63  0.519738
   2021.23  0.533427
   2042.05  0.547713
   2063.07  0.562443
   2084.31  0.577582
   2105.78  0.593143
   2127.46  0.609135
   2149.36  0.625580
   2171.49  0.642494
   2193.85  0.659887
   2216.44  0.677766
   2239.26  0.696134
   2262.32  0.715006
   2285.62  0.734417
   2309.15  0.754375
   2332.93  0.774913
   2356.95  0.796004
   2381.22  0.817675
   2405.73  0.839993
   2430.51  0.862918
   2455.53  0.886469
   2480.81  0.910718
   2506.36  0.935632
   2532.17  0.961230
   2558.24  0.987538
   2584.58  1.01459
   2611.19  1.04242
   2638.08  1.07105
   2665.24  1.10048
   2692.68  1.13069
   2720.41  1.16177
   2748.42  1.19372
   2776.72  1.22659
   2805.31  1.26038
   2834.20  1.29511
   2863.38  1.33083
   2892.86  1.36755
   2922.65  1.40531
   2952.74  1.44414
   2983.15  1.48405
   3013.86  1.52509
   3044.89  1.56729
   3076.25  1.61067
   3107.92  1.65529
   3139.92  1.70116
   3172.25  1.74831
   3204.92  1.79683
   3237.92  1.84670
   3271.26  1.89796
   3304.94  1.95070
   3338.97  2.00491
   3373.35  2.06065
   3408.08  2.11797
   3443.17  2.17690
   3478.63  2.23751
   3514.45  2.29984
   3550.63  2.36393
   3587.19  2.42985
   3624.13  2.49762
   3661.44  2.56732
   3699.14  2.63900
   3737.23  2.71271
   3775.71  2.78848
   3814.59  2.86643
   3853.87  2.94660
   3893.55  3.02906
   3933.64  3.11383
   3974.14  3.20098
   4015.06  3.29066
   4056.40  3.38288
   4098.17  3.47773
   4140.37  3.57530
   4183.00  3.67564
   4226.07  3.77885
   4269.59  3.88499
   4313.55  3.99414
   4357.96  4.10641
   4402.83  4.22188
   4448.17  4.34061
   4493.97  4.46280
   4540.24  4.58853
   4586.99  4.71790
   4634.22  4.85085
   4681.94  4.98759
   4730.15  5.12830
   4778.85  5.27312
   4828.06  5.42208
   4877.77  5.57529
   4928.00  5.73292
   4978.74  5.89508
   5030.00  6.06192
   5036.95  6.08476
   5043.91  6.10769
   5050.87  6.13070
   5057.85  6.15380
   5064.83  6.17701
   5071.83  6.20029
   5078.84  6.22368
   5085.85  6.24714
   5092.88  6.27069
   5099.91  6.29434
   5106.96  6.31807
   5114.01  6.34189
   5121.07  6.36580
   5128.15  6.38980
   5135.23  6.41389
   5142.32  6.43809
   5149.43  6.46238
   5156.54  6.48677
   5163.66  6.51124
   5170.79  6.53581
   5177.94  6.56047
   5185.09  6.58522
   5192.25  6.61007
   5199.42  6.63501
   5206.60  6.66004
   5213.80  6.68517
   5221.00  6.71041
   5228.21  6.73577
   5235.43  6.76125
   5242.66  6.78680
   5249.90  6.81247
   5257.16  6.83822
   5264.42  6.86407
   5271.69  6.89003
   5278.97  6.91608
   5286.26  6.94222
   5293.56  6.96847
   5300.88  6.99482
   5308.20  7.02125
   5315.53  7.04777
   5322.87  7.07439
   5330.23  7.10112
   5337.59  7.12794
   5344.96  7.15487
   5352.34  7.18190
   5359.74  7.20903
   5367.14  7.23626
   5374.55  7.26359
   5381.98  7.29103
   5389.41  7.31858
   5396.85  7.34628
   5404.31  7.37408
   5411.77  7.40200
   5419.25  7.43002
   5426.73  7.45814
   5434.23  7.48638
   5441.74  7.51471
   5449.25  7.54317
   5456.78  7.57171
   5464.32  7.60037
   5471.87  7.62915
   5479.42  7.65804
   5486.99  7.68706
   5494.57  7.71620
   5502.16  7.74544
   5509.76  7.77481
   5517.37  7.80427
   5524.99  7.83385
   5532.62  7.86354
   5540.27  7.89334
   5547.92  7.92326
   5555.58  7.95329
   5563.26  7.98343
   5570.94  8.01369
   5578.63  8.04403
   5586.34  8.07450
   5594.06  8.10509
   5601.78  8.13578
   5609.52  8.16659
   5617.27  8.19753
   5625.03  8.22857
   5632.80  8.25975
   5640.58  8.29103
   5648.37  8.32242
   5656.17  8.35397
   5663.98  8.38570
   5671.81  8.41756
   5679.64  8.44955
   5687.49  8.48165
   5695.34  8.51387
   5703.21  8.54622
   5711.09  8.57869
   5718.98  8.61129
   5726.88  8.64400
   5734.79  8.67684
   5742.71  8.70981
   5750.64  8.74288
   5758.58  8.77606
   5766.54  8.80937
   5774.50  8.84280
   5782.48  8.87637
   5790.47  8.91006
   5798.46  8.94387
   5806.47  8.97782
   5814.49  9.01189
   5822.52  9.04608
   5830.57  9.08042
   5838.62  9.11488
   5846.69  9.14959
   5854.76  9.18443
   5862.85  9.21940
   5870.95  9.25452
   5879.06  9.28976
   5887.18  9.32513
   5895.31  9.36066
   5903.45  9.39630
   5911.61  9.43209
   5919.77  9.46800
   5927.95  9.50406
   5936.14  9.54025
   5944.34  9.57655
   5952.55  9.61299
   5960.77  9.64958
   5969.00  9.68630
   5977.25  9.72315
   5985.50  9.76016
   5993.77  9.79730
   6002.05  9.83460
   6010.34  9.87202
   6018.64  9.90958
   6026.96  9.94730
   6035.28  9.98516
   6043.62  10.0232
   6051.97  10.0614
   6060.32  10.0997
   6068.70  10.1381
   6077.08  10.1767
   6085.47  10.2155
   6093.88  10.2544
   6102.29  10.2934
   6110.72  10.3326
   6119.16  10.3720
   6127.62  10.4115
   6136.08  10.4513
   6144.56  10.4912
   6153.04  10.5312
   6161.54  10.5715
   6170.05  10.6118
   6178.58  10.6524
   6187.11  10.6931
   6195.66  10.7339
   6204.21  10.7749
   6212.78  10.8160
   6221.37  10.8574
   6229.96  10.8988
   6238.56  10.9405
   6247.18  10.9823
   6255.81  11.0243
   6264.45  11.0664
   6273.10  11.1087
   6281.77  11.1512
   6290.45  11.1938
   6299.14  11.2366
   6307.84  11.2795
   6316.55  11.3226
   6325.27  11.3659
   6334.01  11.4093
   6342.76  11.4530
   6351.52  11.4968
   6360.29  11.5408
   6369.08  11.5849
   6377.88  11.6292
   6386.69  11.6737
   6395.51  11.7184
   6404.34  11.7632
   6413.19  11.8082
   6422.05  11.8534
   6430.92  11.8987
   6439.80  11.9443
   6448.70  11.9901
   6457.60  12.0361
   6466.52  12.0822
   6475.45  12.1285
   6484.40  12.1750
   6493.36  12.2216
   6502.32  12.2685
   6511.31  12.3155
   6520.30  12.3627
   6529.31  12.4100
   6538.33  12.4576
   6547.36  12.5054
   6556.40  12.5534
   6565.46  12.6016
   6574.52  12.6499
   6583.61  12.6984
   6592.70  12.7472
   6601.81  12.7960
   6610.92  12.8451
   6620.06  12.8944
   6629.20  12.9439
   6638.36  12.9935
   6647.53  13.0435
   6656.71  13.0936
   6665.90  13.1439
   6675.11  13.1944
   6684.33  13.2451
   6693.56  13.2959
   6702.81  13.3470
   6712.07  13.3983
   6721.34  13.4498
   6730.62  13.5014
   6739.92  13.5533
   6749.23  13.6054
   6758.55  13.6577
   6767.89  13.7102
   6777.24  13.7630
   6786.60  13.8159
   6795.97  13.8691
   6805.36  13.9224
   6814.76  13.9760
   6824.17  14.0297
   6833.60  14.0837
   6843.04  14.1378
   6852.49  14.1922
   6861.95  14.2469
   6871.43  14.3018
   6880.92  14.3569
   6890.43  14.4122
   6899.95  14.4678
   6909.48  14.5235
   6919.02  14.5795
   6928.58  14.6357
   6938.15  14.6921
   6947.73  14.7487
   6957.33  14.8055
   6966.94  14.8626
   6976.56  14.9199
   6986.20  14.9775
   6995.85  15.0353
   7005.51  15.0934
   7015.19  15.1516
   7024.88  15.2101
   7034.58  15.2688
   7044.30  15.3277
   7054.03  15.3869
   7063.77  15.4463
   7073.53  15.5059
   7083.30  15.5658
   7093.08  15.6260
   7102.88  15.6863
   7112.69  15.7470
   7122.52  15.8079
   7132.35  15.8690
   7142.21  15.9303
   7152.07  15.9919
   7161.95  16.0537
   7171.84  16.1158
   7181.75  16.1781
   7191.67  16.2406
   7201.60  16.3035
   7211.55  16.3666
   7221.51  16.4300
   7231.49  16.4936
   7241.47  16.5575
   7251.48  16.6216
   7261.49  16.6860
   7271.52  16.7506
   7281.57  16.8154
   7291.62  16.8805
   7301.70  16.9459
   7311.78  17.0116
   7321.88  17.0775
   7332.00  17.1438
   7342.12  17.2103
   7352.26  17.2770
   7362.42  17.3441
   7372.59  17.4113
   7382.77  17.4789
   7392.97  17.5467
   7403.18  17.6147
   7413.41  17.6830
   7423.65  17.7516
   7433.90  17.8206
   7444.17  17.8898
   7454.45  17.9594
   7464.75  18.0291
   7475.06  18.0992
   7485.39  18.1695
   7495.72  18.2401
   7506.08  18.3111
   7516.45  18.3822
   7526.83  18.4537
   7537.23  18.5254
   7547.64  18.5973
   7558.06  18.6698
   7568.50  18.7424
   7578.96  18.8154
   7589.42  18.8886
   7599.91  18.9622
   7610.40  19.0360
   7620.92  19.1101
   7631.44  19.1845
   7641.98  19.2592
   7652.54  19.3342
   7663.11  19.4094
   7673.70  19.4850
   7684.29  19.5610
   7694.91  19.6373
   7705.54  19.7139
   7716.18  19.7908
   7726.84  19.8680
   7737.51  19.9455
   7748.20  20.0233
   7758.90  20.1014
   7769.62  20.1798
   7780.35  20.2585
   7791.10  20.3376
   7801.86  20.4170
   7812.64  20.4968
   7823.43  20.5769
   7834.23  20.6574
   7845.06  20.7381
   7855.89  20.8192
   7866.74  20.9006
   7877.61  20.9823
   7888.49  21.0643
   7899.39  21.1467
   7910.30  21.2293
   7921.22  21.3123
   7932.17  21.3958
   7943.12  21.4796
   7954.09  21.5637
   7965.08  21.6482
   7976.08  21.7330
   7987.10  21.8181
   7998.13  21.9036
   8009.18  21.9894
   8020.24  22.0755
   8031.32  22.1620
   8042.41  22.2488
   8053.52  22.3361
   8064.65  22.4237
   8075.79  22.5118
   8086.94  22.6002
   8098.11  22.6889
   8109.30  22.7780
   8120.50  22.8675
   8131.71  22.9572
   8142.95  23.0474
   8154.19  23.1379
   8165.46  23.2287
   8176.74  23.3199
   8188.03  23.4116
   8199.34  23.5038
   8210.67  23.5962
   8222.01  23.6891
   8233.36  23.7823
   8244.74  23.8758
   8256.13  23.9698
   8267.53  24.0641
   8278.95  24.1587
   8290.38  24.2538
   8301.83  24.3492
   8313.30  24.4450
   8324.79  24.5415
   8336.28  24.6383
   8347.80  24.7355
   8359.33  24.8331
   8370.88  24.9310
   8382.44  25.0294
   8394.02  25.1281
   8405.61  25.2272
   8417.22  25.3267
   8428.85  25.4266
   8440.49  25.5269
   8452.15  25.6278
   8463.82  25.7291
   8475.51  25.8309
   8487.22  25.9330
   8498.95  26.0355
   8510.68  26.1385
   8522.44  26.2418
   8534.21  26.3456
   8546.00  26.4498
   8557.80  26.5543
   8569.63  26.6593
   8581.46  26.7647
   8593.32  26.8708
   8605.19  26.9774
   8617.07  27.0843
   8628.97  27.1917
   8640.89  27.2995
   8652.83  27.4077
   8664.78  27.5164
   8676.75  27.6255
   8688.73  27.7349
   8700.74  27.8449
   8712.75  27.9553
   8724.79  28.0662
   8736.84  28.1777
   8748.91  28.2897
   8760.99  28.4021
   8773.09  28.5150
   8785.21  28.6283
   8797.35  28.7420
   8809.50  28.8562
   8821.67  28.9709
   8833.85  29.0860
   8846.05  29.2016
   8858.27  29.3176
   8870.51  29.4341
   8882.76  29.5510
   8895.03  29.6685
   8907.32  29.7864
   8919.62  29.9047
   8931.94  30.0236
   8944.28  30.1428
   8956.63  30.2626
   8969.00  30.3829
   8981.39  3.92919
   8993.80  3.94255
   9006.22  3.95595
