 Mo Density=10.22, Angle=90.deg
 Photon Energy (eV), Atten Length (microns)
   30.0000  2.269409E-02
   30.3089  2.387255E-02
   30.6210  2.457039E-02
   30.9363  2.524304E-02
   31.2548  2.587770E-02
   31.5766  2.652830E-02
   31.9018  2.703201E-02
   32.2302  2.719629E-02
   32.5621  2.714585E-02
   32.8974  2.702578E-02
   33.2361  2.690622E-02
   33.5783  2.661219E-02
   33.9241  2.620836E-02
   34.2734  2.567149E-02
   34.6263  2.514571E-02
   34.9828  2.463083E-02
   35.3430  2.412633E-02
   35.7069  2.359566E-02
   36.0746  2.301245E-02
   36.4460  2.204032E-02
   36.8213  2.100804E-02
   37.2004  2.002418E-02
   37.5835  1.908633E-02
   37.9705  1.819241E-02
   38.3614  1.734044E-02
   38.7564  1.626226E-02
   39.1555  1.502914E-02
   39.5586  1.340756E-02
   39.9660  1.197076E-02
   40.3775  1.072628E-02
   40.7932  1.002346E-02
   41.2133  9.449495E-03
   41.6376  8.908355E-03
   42.0663  8.503768E-03
   42.4995  8.163042E-03
   42.9371  7.840251E-03
   43.3792  7.667086E-03
   43.8258  7.603963E-03
   44.2771  7.591348E-03
   44.7330  7.578971E-03
   45.1936  7.566601E-03
   45.6589  7.554255E-03
   46.1291  7.555943E-03
   46.6041  7.591001E-03
   47.0839  7.636848E-03
   47.5687  7.686923E-03
   48.0585  7.737314E-03
   48.5534  7.788053E-03
   49.0533  7.838594E-03
   49.5584  7.872816E-03
   50.0687  7.903841E-03
   50.5842  7.931126E-03
   51.1050  7.958536E-03
   51.6312  7.986040E-03
   52.1629  8.013624E-03
   52.7000  8.149919E-03
   53.2426  8.327384E-03
   53.7908  8.528624E-03
   54.3447  8.737792E-03
   54.9043  8.957903E-03
   55.4696  9.240322E-03
   56.0407  9.531622E-03
   56.6178  9.832088E-03
   57.2007  1.014205E-02
   57.7897  1.052831E-02
   58.3847  1.104850E-02
   58.9859  1.167788E-02
   59.5933  1.236494E-02
   60.2069  1.309240E-02
   60.8268  1.308227E-02
   61.4531  1.450139E-02
   62.0859  1.544200E-02
   62.7251  1.533625E-02
   63.3710  1.686936E-02
   64.0235  1.751978E-02
   64.6827  1.833699E-02
   65.3487  2.032841E-02
   66.0216  2.112772E-02
   66.7014  2.226424E-02
   67.3882  2.442479E-02
   68.0821  2.652547E-02
   68.7831  2.912853E-02
   69.4913  3.164585E-02
   70.2068  3.311986E-02
   70.9297  3.620733E-02
   71.6601  3.868571E-02
   72.3979  4.128223E-02
   73.1434  4.391671E-02
   73.8965  4.659698E-02
   74.6574  4.907571E-02
   75.4261  5.300686E-02
   76.2027  5.706550E-02
   76.9874  6.186961E-02
   77.7801  6.713980E-02
   78.5809  7.293721E-02
   79.3901  7.925098E-02
   80.2075  8.567691E-02
   81.0334  9.245317E-02
   81.8677  9.915818E-02
   82.7107  0.105801
   83.5623  0.112004
   84.4228  0.118304
   85.2920  0.126794
   86.1702  0.132319
   87.0575  0.137621
   87.9539  0.143357
   88.8595  0.148592
   89.7745  0.154848
   90.6988  0.160696
   91.6327  0.165788
   92.5762  0.171836
   93.5295  0.177243
   94.4925  0.182333
   95.4655  0.186556
   96.4484  0.190572
   97.4415  0.193031
   98.4448  0.195148
   99.4585  0.196564
   100.483  0.197174
   101.517  0.198583
   102.562  0.195741
   103.619  0.194938
   104.685  0.196321
   105.763  0.195435
   106.852  0.194486
   107.953  0.195455
   109.064  0.192640
   110.187  0.193643
   111.322  0.193589
   112.468  0.193608
   113.626  0.192768
   114.796  0.190750
   115.978  0.188658
   117.172  0.187839
   118.379  0.186028
   119.597  0.184216
   120.829  0.183900
   122.073  0.187124
   123.330  0.187839
   124.600  0.186993
   125.883  0.186847
   127.179  0.183620
   128.488  0.183747
   129.811  0.185838
   131.148  0.183129
   132.498  0.183996
   133.863  0.183976
   135.241  0.184988
   136.634  0.183350
   138.040  0.183645
   139.462  0.181194
   140.898  0.184099
   142.349  0.179934
   143.814  0.178707
   145.295  0.178854
   146.791  0.177339
   148.303  0.175852
   149.830  0.175106
   151.372  0.173980
   152.931  0.173519
   154.506  0.174155
   156.096  0.173781
   157.704  0.174777
   159.328  0.175779
   160.968  0.177306
   162.626  0.177990
   164.300  0.178927
   165.992  0.179373
   167.701  0.180971
   169.428  0.179934
   171.172  0.180928
   172.935  0.182454
   174.715  0.183045
   176.514  0.185039
   178.332  0.184386
   180.168  0.185934
   182.023  0.186120
   183.897  0.185665
   185.791  0.188853
   187.704  0.184610
   189.637  0.182517
   191.589  0.183410
   193.562  0.184729
   195.555  0.186503
   197.568  0.186903
   199.603  0.188064
   201.658  0.187939
   203.734  0.189683
   205.832  0.190986
   207.952  0.192035
   210.093  0.193213
   212.256  0.194273
   214.441  0.194414
   216.650  0.195845
   218.880  0.196315
   221.134  0.197233
   223.411  0.198746
   225.711  0.198775
   228.035  0.184582
   230.383  0.183852
   232.756  0.176660
   235.152  0.172102
   237.573  0.166983
   240.020  0.154617
   242.491  0.139405
   244.988  0.126178
   247.510  0.123423
   250.059  0.118859
   252.634  0.110553
   255.235  9.898662E-02
   257.863  8.657750E-02
   260.518  7.511374E-02
   263.201  6.546490E-02
   265.911  5.816198E-02
   268.649  5.367436E-02
   271.415  5.082288E-02
   274.209  4.826149E-02
   277.033  4.680756E-02
   279.885  4.640965E-02
   282.767  4.607667E-02
   285.679  4.553118E-02
   288.620  4.498028E-02
   291.592  4.443620E-02
   294.594  4.389864E-02
   297.628  4.307560E-02
   300.692  4.231421E-02
   303.788  4.110525E-02
   306.916  4.047085E-02
   310.077  3.952551E-02
   313.269  3.903477E-02
   316.495  3.879355E-02
   319.754  3.867098E-02
   323.046  3.871286E-02
   326.372  3.925389E-02
   329.733  3.961470E-02
   333.128  3.978845E-02
   336.558  3.974410E-02
   340.024  3.981557E-02
   343.525  4.001988E-02
   347.062  4.026015E-02
   350.635  4.038692E-02
   354.246  4.037011E-02
   357.893  4.070153E-02
   361.578  4.103561E-02
   365.301  4.121124E-02
   369.063  4.138761E-02
   372.863  4.201423E-02
   376.702  4.182238E-02
   380.581  4.126628E-02
   384.499  4.092349E-02
   388.459  4.039911E-02
   392.458  3.590922E-02
   396.499  3.501562E-02
   400.582  3.937322E-02
   404.707  3.832862E-02
   408.874  3.929896E-02
   413.084  3.781540E-02
   417.337  4.182718E-02
   421.634  4.156322E-02
   425.976  4.262985E-02
   430.362  4.282071E-02
   434.793  4.285604E-02
   439.270  4.226053E-02
   443.793  4.209172E-02
   448.362  4.246534E-02
   452.979  4.382017E-02
   457.643  4.500092E-02
   462.355  4.615638E-02
   467.116  4.736235E-02
   471.926  4.829211E-02
   476.785  4.903344E-02
   481.694  4.948990E-02
   486.654  4.996152E-02
   491.665  5.082257E-02
   496.727  5.125747E-02
   501.842  5.082372E-02
   507.009  5.172519E-02
   512.230  5.117378E-02
   517.504  5.081813E-02
   522.832  5.114510E-02
   528.216  5.156303E-02
   533.655  5.350116E-02
   539.150  5.551039E-02
   544.701  5.826688E-02
   550.310  5.833052E-02
   555.976  5.970384E-02
   561.701  5.948083E-02
   567.484  6.099137E-02
   573.327  6.068151E-02
   579.231  6.404434E-02
   585.195  6.519142E-02
   591.220  6.457774E-02
   597.308  6.505664E-02
   603.458  6.596952E-02
   609.672  6.705894E-02
   615.949  6.862691E-02
   622.291  7.015901E-02
   628.699  7.132523E-02
   635.172  7.256782E-02
   641.712  7.382371E-02
   648.320  7.505187E-02
   654.995  7.641049E-02
   661.740  7.781024E-02
   668.553  7.928177E-02
   675.437  8.054435E-02
   682.392  8.182716E-02
   689.418  8.326723E-02
   696.517  8.491162E-02
   703.689  8.710666E-02
   710.934  8.900952E-02
   718.254  9.138093E-02
   725.650  9.299199E-02
   733.122  9.497979E-02
   740.670  9.674688E-02
   748.297  9.845210E-02
   756.002  0.100440
   763.786  0.102755
   771.650  0.105067
   779.596  0.108244
   787.623  0.110806
   795.733  0.113429
   803.926  0.116063
   812.204  0.118005
   820.567  0.120143
   829.016  0.122627
   837.552  0.125613
   846.176  0.128271
   854.888  0.131379
   863.691  0.134663
   872.584  0.138416
   881.569  0.141380
   890.646  0.145051
   899.816  0.147823
   909.081  0.151949
   918.442  0.155048
   927.899  0.158758
   937.453  0.162870
   947.106  0.167110
   956.858  0.171462
   966.710  0.175606
   976.664  0.179545
   986.720  0.182945
   996.880  0.186592
   1007.14  0.190484
   1017.51  0.195022
   1027.99  0.199667
   1038.58  0.204423
   1049.27  0.209294
   1060.07  0.214281
   1070.99  0.219385
   1082.02  0.224610
   1093.16  0.229961
   1104.41  0.235440
   1115.79  0.241049
   1127.27  0.246792
   1138.88  0.252672
   1150.61  0.258692
   1162.46  0.264854
   1174.42  0.271163
   1186.52  0.277623
   1198.73  0.284235
   1211.08  0.291007
   1223.55  0.297939
   1236.15  0.305036
   1248.87  0.312304
   1261.73  0.319786
   1274.72  0.327591
   1287.85  0.335619
   1301.11  0.343861
   1314.51  0.352305
   1328.04  0.360957
   1341.72  0.369822
   1355.53  0.378905
   1369.49  0.388210
   1383.59  0.397745
   1397.84  0.407512
   1412.23  0.417520
   1426.77  0.427774
   1441.46  0.438281
   1456.30  0.449047
   1471.30  0.460073
   1486.45  0.471371
   1501.75  0.482949
   1517.22  0.494809
   1532.84  0.507081
   1548.62  0.519818
   1564.57  0.532973
   1580.68  0.546477
   1596.95  0.560321
   1613.40  0.574517
   1630.01  0.589072
   1646.79  0.603996
   1663.75  0.619299
   1680.88  0.634992
   1698.19  0.651078
   1715.67  0.667572
   1733.34  0.684484
   1751.18  0.701827
   1769.22  0.719609
   1787.43  0.737840
   1805.84  0.756535
   1824.43  0.775704
   1843.22  0.795356
   1862.20  0.815507
   1881.37  0.836170
   1900.74  0.857354
   1920.31  0.879074
   1940.09  0.901344
   1960.06  0.924414
   1980.24  0.948141
   2000.63  0.972566
   2021.23  0.997614
   2042.05  1.02331
   2063.07  1.04967
   2084.31  1.07671
   2105.78  1.10444
   2127.46  1.13288
   2149.36  1.16206
   2171.49  1.19199
   2193.85  1.22269
   2216.44  1.25418
   2239.26  1.28649
   2262.32  1.31963
   2285.62  1.35362
   2309.15  1.38848
   2332.93  1.42424
   2356.95  1.46092
   2381.22  1.49855
   2405.73  1.53715
   2430.51  1.57674
   2455.53  1.61735
   2480.81  1.65901
   2506.36  1.70174
   2532.17  0.507622
   2558.24  0.520508
   2584.58  0.533720
   2611.19  0.547266
   2638.08  0.408677
   2665.24  0.418836
   2692.68  0.429247
   2720.41  0.439916
   2748.42  0.450851
   2776.72  0.462057
   2805.31  0.473541
   2834.20  0.485312
   2863.38  0.497377
   2892.86  0.448595
   2922.65  0.459904
   2952.74  0.471500
   2983.15  0.483389
   3013.86  0.495578
   3044.89  0.508073
   3076.25  0.520883
   3107.92  0.534018
   3139.92  0.547482
   3172.25  0.561285
   3204.92  0.575437
   3237.92  0.589946
   3271.26  0.604823
   3304.94  0.620140
   3338.97  0.636112
   3373.35  0.652800
   3408.08  0.669928
   3443.17  0.687502
   3478.63  0.705537
   3514.45  0.724044
   3550.63  0.743038
   3587.19  0.762529
   3624.13  0.782535
   3661.44  0.803068
   3699.14  0.824134
   3737.23  0.845753
   3775.71  0.867938
   3814.59  0.890708
   3853.87  0.914075
   3893.55  0.938056
   3933.64  0.963052
   3974.14  0.988890
   4015.06  1.01569
   4056.40  1.04322
   4098.17  1.07149
   4140.37  1.10053
   4183.00  1.13035
   4226.07  1.16099
   4269.59  1.19245
   4313.55  1.22477
   4357.96  1.25796
   4402.83  1.29205
   4448.17  1.32707
   4493.97  1.36304
   4540.24  1.39998
   4586.99  1.43792
   4634.22  1.47688
   4681.94  1.51691
   4730.15  1.55802
   4778.85  1.60024
   4828.06  1.64393
   4877.77  1.68922
   4928.00  1.73614
   4978.74  1.78442
   5030.00  1.83405
   5036.95  1.84084
   5043.91  1.84766
   5050.87  1.85450
   5057.85  1.86136
   5064.83  1.86825
   5071.83  1.87517
   5078.84  1.88211
   5085.85  1.88908
   5092.88  1.89607
   5099.91  1.90310
   5106.96  1.91014
   5114.01  1.91722
   5121.07  1.92431
   5128.15  1.93144
   5135.23  1.93859
   5142.32  1.94577
   5149.43  1.95297
   5156.54  1.96020
   5163.66  1.96746
   5170.79  1.97475
   5177.94  1.98206
   5185.09  1.98940
   5192.25  1.99677
   5199.42  2.00416
   5206.60  2.01158
   5213.80  2.01903
   5221.00  2.02650
   5228.21  2.03400
   5235.43  2.04154
   5242.66  2.04910
   5249.90  2.05668
   5257.16  2.06430
   5264.42  2.07194
   5271.69  2.07961
   5278.97  2.08731
   5286.26  2.09504
   5293.56  2.10280
   5300.88  2.11058
   5308.20  2.11840
   5315.53  2.12624
   5322.87  2.13412
   5330.23  2.14202
   5337.59  2.14995
   5344.96  2.15791
   5352.34  2.16590
   5359.74  2.17392
   5367.14  2.18197
   5374.55  2.19005
   5381.98  2.19816
   5389.41  2.20630
   5396.85  2.21446
   5404.31  2.22266
   5411.77  2.23089
   5419.25  2.23915
   5426.73  2.24744
   5434.23  2.25577
   5441.74  2.26412
   5449.25  2.27250
   5456.78  2.28091
   5464.32  2.28936
   5471.87  2.29784
   5479.42  2.30634
   5486.99  2.31488
   5494.57  2.32345
   5502.16  2.33206
   5509.76  2.34069
   5517.37  2.34936
   5524.99  2.35805
   5532.62  2.36679
   5540.27  2.37555
   5547.92  2.38434
   5555.58  2.39317
   5563.26  2.40203
   5570.94  2.41093
   5578.63  2.41985
   5586.34  2.42881
   5594.06  2.43781
   5601.78  2.44683
   5609.52  2.45589
   5617.27  2.46499
   5625.03  2.47411
   5632.80  2.48327
   5640.58  2.49247
   5648.37  2.50169
   5656.17  2.51096
   5663.98  2.52025
   5671.81  2.52958
   5679.64  2.53895
   5687.49  2.54835
   5695.34  2.55778
   5703.21  2.56726
   5711.09  2.57676
   5718.98  2.58630
   5726.88  2.59588
   5734.79  2.60549
   5742.71  2.61514
   5750.64  2.62482
   5758.58  2.63454
   5766.54  2.64429
   5774.50  2.65408
   5782.48  2.66391
   5790.47  2.67377
   5798.46  2.68367
   5806.47  2.69361
   5814.49  2.70358
   5822.52  2.71359
   5830.57  2.72364
   5838.62  2.73373
   5846.69  2.74385
   5854.76  2.75401
   5862.85  2.76420
   5870.95  2.77444
   5879.06  2.78471
   5887.18  2.79502
   5895.31  2.80537
   5903.45  2.81575
   5911.61  2.82618
   5919.77  2.83664
   5927.95  2.84714
   5936.14  2.85769
   5944.34  2.86826
   5952.55  2.87888
   5960.77  2.88954
   5969.00  2.90024
   5977.25  2.91098
   5985.50  2.92176
   5993.77  2.93257
   6002.05  2.94344
   6010.34  2.95433
   6018.64  2.96527
   6026.96  2.97625
   6035.28  2.98727
   6043.62  2.99833
   6051.97  3.00943
   6060.32  3.02057
   6068.70  3.03175
   6077.08  3.04298
   6085.47  3.05424
   6093.88  3.06555
   6102.29  3.07690
   6110.72  3.08829
   6119.16  3.09973
   6127.62  3.11120
   6136.08  3.12272
   6144.56  3.13428
   6153.04  3.14588
   6161.54  3.15753
   6170.05  3.16922
   6178.58  3.18095
   6187.11  3.19273
   6195.66  3.20455
   6204.21  3.21642
   6212.78  3.22833
   6221.37  3.24039
   6229.96  3.25249
   6238.56  3.26464
   6247.18  3.27683
   6255.81  3.28907
   6264.45  3.30135
   6273.10  3.31369
   6281.77  3.32606
   6290.45  3.33848
   6299.14  3.35095
   6307.84  3.36347
   6316.55  3.37608
   6325.27  3.38883
   6334.01  3.40161
   6342.76  3.41445
   6351.52  3.42734
   6360.29  3.44027
   6369.08  3.45326
   6377.88  3.46629
   6386.69  3.47937
   6395.51  3.49250
   6404.34  3.50568
   6413.19  3.51891
   6422.05  3.53219
   6430.92  3.54552
   6439.80  3.55890
   6448.70  3.57233
   6457.60  3.58581
   6466.52  3.59935
   6475.45  3.61293
   6484.40  3.62656
   6493.36  3.64025
   6502.32  3.65399
   6511.31  3.66778
   6520.30  3.68162
   6529.31  3.69551
   6538.33  3.70946
   6547.36  3.72346
   6556.40  3.73751
   6565.46  3.75162
   6574.52  3.76577
   6583.61  3.77998
   6592.70  3.79425
   6601.81  3.80856
   6610.92  3.82294
   6620.06  3.83736
   6629.20  3.85184
   6638.36  3.86638
   6647.53  3.88097
   6656.71  3.89562
   6665.90  3.91032
   6675.11  3.92507
   6684.33  3.93988
   6693.56  3.95475
   6702.81  3.96967
   6712.07  3.98466
   6721.34  3.99969
   6730.62  4.01479
   6739.92  4.02993
   6749.23  4.04514
   6758.55  4.06041
   6767.89  4.07573
   6777.24  4.09111
   6786.60  4.10655
   6795.97  4.12204
   6805.36  4.13759
   6814.76  4.15321
   6824.17  4.16888
   6833.60  4.18462
   6843.04  4.20041
   6852.49  4.21625
   6861.95  4.23217
   6871.43  4.24813
   6880.92  4.26416
   6890.43  4.28025
   6899.95  4.29640
   6909.48  4.31262
   6919.02  4.32889
   6928.58  4.34522
   6938.15  4.36162
   6947.73  4.37808
   6957.33  4.39460
   6966.94  4.41119
   6976.56  4.42783
   6986.20  4.44455
   6995.85  4.46132
   7005.51  4.47815
   7015.19  4.49505
   7024.88  4.51202
   7034.58  4.52904
   7044.30  4.54614
   7054.03  4.56329
   7063.77  4.58051
   7073.53  4.59780
   7083.30  4.61514
   7093.08  4.63256
   7102.88  4.65004
   7112.69  4.66758
   7122.52  4.68520
   7132.35  4.70288
   7142.21  4.72062
   7152.07  4.73844
   7161.95  4.75631
   7171.84  4.77426
   7181.75  4.79228
   7191.67  4.81036
   7201.60  4.82851
   7211.55  4.84673
   7221.51  4.86501
   7231.49  4.88337
   7241.47  4.90180
   7251.48  4.92030
   7261.49  4.93886
   7271.52  4.95749
   7281.57  4.97620
   7291.62  4.99498
   7301.70  5.01382
   7311.78  5.03275
   7321.88  5.05174
   7332.00  5.07080
   7342.12  5.08994
   7352.26  5.10914
   7362.42  5.12842
   7372.59  5.14777
   7382.77  5.16720
   7392.97  5.18670
   7403.18  5.20627
   7413.41  5.22591
   7423.65  5.24563
   7433.90  5.26542
   7444.17  5.28529
   7454.45  5.30523
   7464.75  5.32525
   7475.06  5.34534
   7485.39  5.36551
   7495.72  5.38575
   7506.08  5.40608
   7516.45  5.42647
   7526.83  5.44695
   7537.23  5.46750
   7547.64  5.48812
   7558.06  5.50884
   7568.50  5.52962
   7578.96  5.55048
   7589.42  5.57142
   7599.91  5.59244
   7610.40  5.61355
   7620.92  5.63472
   7631.44  5.65598
   7641.98  5.67732
   7652.54  5.69874
   7663.11  5.72024
   7673.70  5.74183
   7684.29  5.76349
   7694.91  5.78525
   7705.54  5.80708
   7716.18  5.82898
   7726.84  5.85098
   7737.51  5.87306
   7748.20  5.89522
   7758.90  5.91747
   7769.62  5.93979
   7780.35  5.96220
   7791.10  5.98470
   7801.86  6.00728
   7812.64  6.02994
   7823.43  6.05269
   7834.23  6.07552
   7845.06  6.09845
   7855.89  6.12145
   7866.74  6.14455
   7877.61  6.16773
   7888.49  6.19100
   7899.39  6.21436
   7910.30  6.23780
   7921.22  6.26133
   7932.17  6.28496
   7943.12  6.30867
   7954.09  6.33247
   7965.08  6.35637
   7976.08  6.38034
   7987.10  6.40442
   7998.13  6.42858
   8009.18  6.45283
   8020.24  6.47718
   8031.32  6.50162
   8042.41  6.52614
   8053.52  6.55077
   8064.65  6.57548
   8075.79  6.60030
   8086.94  6.62520
   8098.11  6.65019
   8109.30  6.67528
   8120.50  6.70047
   8131.71  6.72574
   8142.95  6.75112
   8154.19  6.77659
   8165.46  6.80216
   8176.74  6.82782
   8188.03  6.85358
   8199.34  6.87944
   8210.67  6.90540
   8222.01  6.93144
   8233.36  6.95760
   8244.74  6.98385
   8256.13  7.01021
   8267.53  7.03665
   8278.95  7.06319
   8290.38  7.08985
   8301.83  7.11659
   8313.30  7.14343
   8324.79  7.17039
   8336.28  7.19744
   8347.80  7.22458
   8359.33  7.25185
   8370.88  7.27920
   8382.44  7.30667
   8394.02  7.33423
   8405.61  7.36189
   8417.22  7.38967
   8428.85  7.41754
   8440.49  7.44552
   8452.15  7.47362
   8463.82  7.50181
   8475.51  7.53012
   8487.22  7.55852
   8498.95  7.58703
   8510.68  7.61567
   8522.44  7.64439
   8534.21  7.67323
   8546.00  7.70218
   8557.80  7.73124
   8569.63  7.76041
   8581.46  7.78968
   8593.32  7.81906
   8605.19  7.84857
   8617.07  7.87817
   8628.97  7.90788
   8640.89  7.93773
   8652.83  7.96766
   8664.78  7.99773
   8676.75  8.02790
   8688.73  8.05818
   8700.74  8.08858
   8712.75  8.11909
   8724.79  8.14971
   8736.84  8.18046
   8748.91  8.21132
   8760.99  8.24230
   8773.09  8.27339
   8785.21  8.30459
   8797.35  8.33593
   8809.50  8.36736
   8821.67  8.39892
   8833.85  8.43061
   8846.05  8.46241
   8858.27  8.49432
   8870.51  8.52637
   8882.76  8.55852
   8895.03  8.59081
   8907.32  8.62321
   8919.62  8.65573
   8931.94  8.68839
   8944.28  8.72115
   8956.63  8.75404
   8969.00  8.78707
   8981.39  8.82020
   8993.80  8.85364
   9006.22  8.88725
   9018.66  8.92099
   9031.12  8.95488
   9043.59  8.98887
   9056.08  9.02300
   9068.59  9.05727
   9081.12  9.09166
   9093.66  9.12619
   9106.22  9.16084
   9118.80  9.19562
