 Si Density=2.33, Angle=90.deg
 Photon Energy (eV), Atten Length (microns)
   30.0000  0.230161
   30.3089  0.232091
   30.6210  0.234039
   30.9363  0.236002
   31.2548  0.237969
   31.5766  0.239643
   31.9018  0.240948
   32.2302  0.241836
   32.5621  0.242727
   32.8974  0.243621
   33.2361  0.244518
   33.5783  0.245420
   33.9241  0.246324
   34.2734  0.247231
   34.6263  0.248142
   34.9828  0.249057
   35.3430  0.249975
   35.7069  0.250896
   36.0746  0.251820
   36.4460  0.252748
   36.8213  0.253679
   37.2004  0.254614
   37.5835  0.255552
   37.9705  0.256494
   38.3614  0.257439
   38.7564  0.258388
   39.1555  0.259387
   39.5586  0.260762
   39.9660  0.262520
   40.3775  0.264603
   40.7932  0.266703
   41.2133  0.268819
   41.6376  0.270953
   42.0663  0.273103
   42.4995  0.275270
   42.9371  0.277455
   43.3792  0.279657
   43.8258  0.281876
   44.2771  0.284113
   44.7330  0.286368
   45.1936  0.288640
   45.6589  0.290931
   46.1291  0.293350
   46.6041  0.295926
   47.0839  0.298630
   47.5687  0.301371
   48.0585  0.304138
   48.5534  0.306930
   49.0533  0.309748
   49.5584  0.312592
   50.0687  0.315462
   50.5842  0.318358
   51.1050  0.321281
   51.6312  0.324230
   52.1629  0.327207
   52.7000  0.329867
   53.2426  0.332188
   53.7908  0.333914
   54.3447  0.335650
   54.9043  0.337394
   55.4696  0.339148
   56.0407  0.340911
   56.6178  0.342683
   57.2007  0.344464
   57.7897  0.346254
   58.3847  0.348054
   58.9859  0.349863
   59.5933  0.350502
   60.2069  0.349295
   60.8268  0.347793
   61.4531  0.346234
   62.0859  0.344682
   62.7251  0.343137
   63.3710  0.341598
   64.0235  0.340066
   64.6827  0.338675
   65.3487  0.337395
   66.0216  0.339249
   66.7014  0.341142
   67.3882  0.343045
   68.0821  0.344959
   68.7831  0.346883
   69.4913  0.348818
   70.2068  0.353276
   70.9297  0.359365
   71.6601  0.368839
   72.3979  0.378562
   73.1434  0.388541
   73.8965  0.398784
   74.6574  0.411359
   75.4261  0.426829
   76.2027  0.446427
   76.9874  0.467362
   77.7801  0.489281
   78.5809  0.512046
   79.3901  0.532876
   80.2075  0.542211
   81.0334  0.551709
   81.8677  0.561373
   82.7107  0.571206
   83.5623  0.580937
   84.4228  0.590550
   85.2920  0.591218
   86.1702  0.591218
   87.0575  0.591218
   87.9539  0.591218
   88.8595  0.591219
   89.7745  0.591219
   90.6988  0.590421
   91.6327  0.588981
   92.5762  0.585346
   93.5295  0.581732
   94.4925  0.578141
   95.4655  0.574571
   96.4484  0.570477
   97.4415  0.565601
   98.4448  0.556251
   99.4585  0.546182
   100.483  8.126478E-02
   101.517  5.831076E-02
   102.562  7.541358E-02
   103.619  8.853634E-02
   104.685  9.067190E-02
   105.763  8.002682E-02
   106.852  6.913798E-02
   107.953  6.501558E-02
   109.064  6.297047E-02
   110.187  6.079578E-02
   111.322  5.736562E-02
   112.468  5.506041E-02
   113.626  5.346958E-02
   114.796  5.104188E-02
   115.978  4.791560E-02
   117.172  4.494228E-02
   118.379  4.319568E-02
   119.597  4.241746E-02
   120.829  4.165838E-02
   122.073  4.103207E-02
   123.330  4.082270E-02
   124.600  4.065550E-02
   125.883  4.060145E-02
   127.179  4.040853E-02
   128.488  4.003759E-02
   129.811  3.956503E-02
   131.148  3.901469E-02
   132.498  3.885903E-02
   133.863  3.945491E-02
   135.241  4.108876E-02
   136.634  4.273255E-02
   138.040  4.367766E-02
   139.462  4.391144E-02
   140.898  4.392164E-02
   142.349  4.440783E-02
   143.814  4.432293E-02
   145.295  4.397022E-02
   146.791  4.381588E-02
   148.303  4.381219E-02
   149.830  4.421845E-02
   151.372  4.351953E-02
   152.931  4.352227E-02
   154.506  4.567065E-02
   156.096  4.621577E-02
   157.704  4.596611E-02
   159.328  4.548515E-02
   160.968  4.494583E-02
   162.626  4.428848E-02
   164.300  4.393322E-02
   165.992  4.404982E-02
   167.701  4.403828E-02
   169.428  4.436794E-02
   171.172  4.543726E-02
   172.935  4.739599E-02
   174.715  4.973730E-02
   176.514  5.199995E-02
   178.332  5.351440E-02
   180.168  5.436633E-02
   182.023  5.521208E-02
   183.897  5.607097E-02
   185.791  5.694325E-02
   187.704  5.783795E-02
   189.637  5.876309E-02
   191.589  5.972778E-02
   193.562  6.070817E-02
   195.555  6.170464E-02
   197.568  6.271759E-02
   199.603  6.374716E-02
   201.658  6.478639E-02
   203.734  6.579444E-02
   205.832  6.679899E-02
   207.952  6.780404E-02
   210.093  6.882411E-02
   212.256  6.985956E-02
   214.441  7.091063E-02
   216.650  7.197756E-02
   218.880  7.307346E-02
   221.134  7.421645E-02
   223.411  7.555293E-02
   225.711  7.697802E-02
   228.035  7.843012E-02
   230.383  7.990966E-02
   232.756  8.141711E-02
   235.152  8.295299E-02
   237.573  8.451771E-02
   240.020  8.611181E-02
   242.491  8.773616E-02
   244.988  8.939116E-02
   247.510  9.107748E-02
   250.059  9.289816E-02
   252.634  9.479086E-02
   255.235  9.673994E-02
   257.863  9.872927E-02
   260.518  0.100760
   263.201  0.102831
   265.911  0.104946
   268.649  0.107104
   271.415  0.109307
   274.209  0.111554
   277.033  0.113848
   279.885  0.116189
   282.767  0.118579
   285.679  0.121017
   288.620  0.123506
   291.592  0.126045
   294.594  0.128637
   297.628  0.131322
   300.692  0.134097
   303.788  0.136991
   306.916  0.139949
   310.077  0.142971
   313.269  0.146058
   316.495  0.149212
   319.754  0.152434
   323.046  0.155725
   326.372  0.159088
   329.733  0.162523
   333.128  0.166032
   336.558  0.169617
   340.024  0.173279
   343.525  0.177021
   347.062  0.180843
   350.635  0.184748
   354.246  0.188737
   357.893  0.192813
   361.578  0.196976
   365.301  0.201320
   369.063  0.206183
   372.863  0.211249
   376.702  0.216496
   380.581  0.221872
   384.499  0.227382
   388.459  0.233029
   392.458  0.238817
   396.499  0.244748
   400.582  0.250827
   404.707  0.257056
   408.874  0.263440
   413.084  0.269983
   417.337  0.276688
   421.634  0.283560
   425.976  0.290602
   430.362  0.297819
   434.793  0.305216
   439.270  0.312796
   443.793  0.320565
   448.362  0.328526
   452.979  0.336685
   457.643  0.345067
   462.355  0.353720
   467.116  0.362824
   471.926  0.372271
   476.785  0.381964
   481.694  0.391910
   486.654  0.402115
   491.665  0.412585
   496.727  0.423328
   501.842  0.434351
   507.009  0.445662
   512.230  0.457266
   517.504  0.469172
   522.832  0.481388
   528.216  0.493923
   533.655  0.506784
   539.150  0.519980
   544.701  0.533520
   550.310  0.547412
   555.976  0.561666
   561.701  0.576292
   567.484  0.591298
   573.327  0.606694
   579.231  0.622492
   585.195  0.639161
   591.220  0.656504
   597.308  0.674646
   603.458  0.693290
   609.672  0.712450
   615.949  0.732139
   622.291  0.752371
   628.699  0.773163
   635.172  0.794531
   641.712  0.816488
   648.320  0.839050
   654.995  0.862238
   661.740  0.886066
   668.553  0.910555
   675.437  0.935717
   682.392  0.961574
   689.418  0.988148
   696.517  1.01484
   703.689  1.04170
   710.934  1.06867
   718.254  1.09633
   725.650  1.12470
   733.122  1.15381
   740.670  1.18366
   748.297  1.21429
   756.002  1.24572
   763.786  1.27796
   771.650  1.31103
   779.596  1.34496
   787.623  1.37976
   795.733  1.41623
   803.926  1.45456
   812.204  1.49510
   820.567  1.53678
   829.016  1.57961
   837.552  1.62365
   846.176  1.66891
   854.888  1.71543
   863.691  1.76325
   872.584  1.81240
   881.569  1.86293
   890.646  1.91486
   899.816  1.96965
   909.081  2.02763
   918.442  2.08901
   927.899  2.15243
   937.453  2.21777
   947.106  2.28510
   956.858  2.35448
   966.710  2.42596
   976.664  2.49961
   986.720  2.57552
   996.880  2.65378
   1007.14  2.73447
   1017.51  2.81767
   1027.99  2.90343
   1038.58  2.99179
   1049.27  3.08281
   1060.07  3.17664
   1070.99  3.27332
   1082.02  3.37293
   1093.16  3.47167
   1104.41  3.57091
   1115.79  3.66905
   1127.27  3.76995
   1138.88  3.87368
   1150.61  3.98028
   1162.46  4.08982
   1174.42  4.20236
   1186.52  4.31804
   1198.73  4.43699
   1211.08  4.55940
   1223.55  4.68530
   1236.15  4.81473
   1248.87  4.94775
   1261.73  5.08442
   1274.72  5.22486
   1287.85  5.36920
   1301.11  5.51794
   1314.51  5.67132
   1328.04  5.82902
   1341.72  5.99115
   1355.53  6.15788
   1369.49  6.32920
   1383.59  6.50535
   1397.84  6.68681
   1412.23  6.87356
   1426.77  7.06567
   1441.46  7.26344
   1456.30  7.46676
   1471.30  7.67577
   1486.45  7.89076
   1501.75  8.11413
   1517.22  8.34832
   1532.84  8.58969
   1548.62  8.83826
   1564.57  9.09440
   1580.68  9.35787
   1596.95  9.62895
   1613.40  9.90792
   1630.01  10.1950
   1646.79  10.4905
   1663.75  10.7945
   1680.88  11.1073
   1698.19  11.4291
   1715.67  11.7602
   1733.34  12.1035
   1751.18  12.4647
   1769.22  12.8381
   1787.43  13.2236
   1805.84  13.6227
   1824.43  14.0337
   1843.22  1.27404
   1862.20  1.30565
   1881.37  1.33804
   1900.74  1.37124
   1920.31  1.40526
   1940.09  1.44014
   1960.06  1.47589
   1980.24  1.51252
   2000.63  1.55019
   2021.23  1.58886
   2042.05  1.62862
   2063.07  1.66941
   2084.31  1.71137
   2105.78  1.75519
   2127.46  1.80024
   2149.36  1.84653
   2171.49  1.89423
   2193.85  1.94331
   2216.44  1.99384
   2239.26  2.04581
   2262.32  2.09925
   2285.62  2.15428
   2309.15  2.21097
   2332.93  2.26925
   2356.95  2.32922
   2381.22  2.39101
   2405.73  2.45458
   2430.51  2.52001
   2455.53  2.58733
   2480.81  2.65662
   2506.36  2.72801
   2532.17  2.80141
   2558.24  2.87688
   2584.58  2.95472
   2611.19  3.03479
   2638.08  3.11719
   2665.24  3.20196
   2692.68  3.28916
   2720.41  3.37919
   2748.42  3.47176
   2776.72  3.56694
   2805.31  3.66499
   2834.20  3.76589
   2863.38  3.86979
   2892.86  3.97676
   2922.65  4.08683
   2952.74  4.20028
   2983.15  4.31700
   3013.86  4.43708
   3044.89  4.56079
   3076.25  4.68817
   3107.92  4.81929
   3139.92  4.95425
   3172.25  5.09321
   3204.92  5.23634
   3237.92  5.38375
   3271.26  5.53542
   3304.94  5.69156
   3338.97  5.85253
   3373.35  6.01822
   3408.08  6.18877
   3443.17  6.36438
   3478.63  6.54517
   3514.45  6.73150
   3550.63  6.92324
   3587.19  7.12056
   3624.13  7.32409
   3661.44  7.53360
   3699.14  7.74926
   3737.23  7.97137
   3775.71  8.20002
   3814.59  8.43579
   3853.87  8.67845
   3893.55  8.92821
   3933.64  9.18571
   3974.14  9.45084
   4015.06  9.72386
   4056.40  10.0050
   4098.17  10.2946
   4140.37  10.5931
   4183.00  10.9004
   4226.07  11.2168
   4269.59  11.5427
   4313.55  11.8786
   4357.96  12.2245
   4402.83  12.5807
   4448.17  12.9477
   4493.97  13.3258
   4540.24  13.7154
   4586.99  14.1166
   4634.22  14.5298
   4681.94  14.9558
   4730.15  15.3946
   4778.85  15.8464
   4828.06  16.3119
   4877.77  16.7912
   4928.00  17.2853
   4978.74  17.7941
   5030.00  18.3181
   5036.95  18.3900
   5043.91  18.4623
   5050.87  18.5348
   5057.85  18.6076
   5064.83  18.6807
   5071.83  18.7541
   5078.84  18.8278
   5085.85  18.9017
   5092.88  18.9759
   5099.91  19.0505
   5106.96  19.1253
   5114.01  19.2005
   5121.07  19.2759
   5128.15  19.3517
   5135.23  19.4278
   5142.32  19.5041
   5149.43  19.5808
   5156.54  19.6577
   5163.66  19.7350
   5170.79  19.8126
   5177.94  19.8904
   5185.09  19.9686
   5192.25  20.0471
   5199.42  20.1259
   5206.60  20.2050
   5213.80  20.2845
   5221.00  20.3642
   5228.21  20.4443
   5235.43  20.5247
   5242.66  20.6054
   5249.90  20.6865
   5257.16  20.7678
   5264.42  20.8494
   5271.69  20.9314
   5278.97  21.0138
   5286.26  21.0965
   5293.56  21.1796
   5300.88  21.2630
   5308.20  21.3468
   5315.53  21.4309
   5322.87  21.5153
   5330.23  21.6000
   5337.59  21.6851
   5344.96  21.7705
   5352.34  21.8563
   5359.74  21.9423
   5367.14  22.0288
   5374.55  22.1156
   5381.98  22.2028
   5389.41  22.2903
   5396.85  22.3782
   5404.31  22.4663
   5411.77  22.5549
   5419.25  22.6438
   5426.73  22.7330
   5434.23  22.8227
   5441.74  22.9126
   5449.25  23.0029
   5456.78  23.0937
   5464.32  23.1849
   5471.87  23.2764
   5479.42  23.3683
   5486.99  23.4605
   5494.57  23.5532
   5502.16  23.6461
   5509.76  23.7395
   5517.37  23.8332
   5524.99  23.9272
   5532.62  24.0217
   5540.27  24.1165
   5547.92  24.2118
   5555.58  24.3076
   5563.26  24.4036
   5570.94  24.5001
   5578.63  24.5969
   5586.34  24.6941
   5594.06  24.7917
   5601.78  24.8896
   5609.52  24.9880
   5617.27  25.0868
   5625.03  25.1859
   5632.80  25.2855
   5640.58  25.3855
   5648.37  25.4859
   5656.17  25.5867
   5663.98  25.6879
   5671.81  25.7895
   5679.64  25.8916
   5687.49  25.9940
   5695.34  26.0968
   5703.21  26.2000
   5711.09  26.3036
   5718.98  26.4077
   5726.88  26.5123
   5734.79  26.6172
   5742.71  26.7226
   5750.64  26.8284
   5758.58  26.9346
   5766.54  27.0413
   5774.50  27.1483
   5782.48  27.2558
   5790.47  27.3637
   5798.46  27.4720
   5806.47  27.5808
   5814.49  27.6900
   5822.52  27.7997
   5830.57  27.9099
   5838.62  28.0204
   5846.69  28.1315
   5854.76  28.2429
   5862.85  28.3548
   5870.95  28.4672
   5879.06  28.5799
   5887.18  28.6931
   5895.31  28.8068
   5903.45  28.9209
   5911.61  29.0357
   5919.77  29.1509
   5927.95  29.2666
   5936.14  29.3827
   5944.34  29.4993
   5952.55  29.6163
   5960.77  29.7339
   5969.00  29.8518
   5977.25  29.9702
   5985.50  30.0892
   5993.77  30.2086
   6002.05  30.3285
   6010.34  30.4489
   6018.64  30.5698
   6026.96  30.6913
   6035.28  30.8132
   6043.62  30.9355
   6051.97  31.0584
   6060.32  31.1818
   6068.70  31.3057
   6077.08  31.4300
   6085.47  31.5548
   6093.88  31.6802
   6102.29  31.8060
   6110.72  31.9324
   6119.16  32.0593
   6127.62  32.1867
   6136.08  32.3146
   6144.56  32.4430
   6153.04  32.5719
   6161.54  32.7013
   6170.05  32.8313
   6178.58  32.9617
   6187.11  33.0927
   6195.66  33.2242
   6204.21  33.3563
   6212.78  33.4889
   6221.37  33.6221
   6229.96  33.7558
   6238.56  33.8900
   6247.18  34.0248
   6255.81  34.1601
   6264.45  34.2959
   6273.10  34.4323
   6281.77  34.5692
   6290.45  34.7066
   6299.14  34.8447
   6307.84  34.9832
   6316.55  35.1223
   6325.27  35.2620
   6334.01  35.4022
   6342.76  35.5431
   6351.52  35.6845
   6360.29  35.8269
   6369.08  35.9700
   6377.88  36.1135
   6386.69  36.2576
   6395.51  36.4024
   6404.34  36.5477
   6413.19  36.6935
   6422.05  36.8400
   6430.92  36.9870
   6439.80  37.1344
   6448.70  37.2824
   6457.60  37.4309
   6466.52  37.5801
   6475.45  37.7298
   6484.40  37.8801
   6493.36  38.0310
   6502.32  38.1825
   6511.31  38.3347
   6520.30  38.4874
   6529.31  38.6407
   6538.33  38.7948
   6547.36  38.9495
   6556.40  39.1048
   6565.46  39.2608
   6574.52  39.4173
   6583.61  39.5746
   6592.70  39.7324
   6601.81  39.8908
   6610.92  40.0499
   6620.06  40.2096
   6629.20  40.3699
   6638.36  40.5310
   6647.53  40.6928
   6656.71  40.8554
   6665.90  41.0186
   6675.11  41.1824
   6684.33  41.3470
   6693.56  41.5121
   6702.81  41.6779
   6712.07  41.8444
   6721.34  42.0116
   6730.62  42.1795
   6739.92  42.3479
   6749.23  42.5171
   6758.55  42.6871
   6767.89  42.8577
   6777.24  43.0289
   6786.60  43.2010
   6795.97  43.3737
   6805.36  43.5470
   6814.76  43.7211
   6824.17  43.8959
   6833.60  44.0714
   6843.04  44.2475
   6852.49  44.4243
   6861.95  44.6020
   6871.43  44.7803
   6880.92  44.9594
   6890.43  45.1392
   6899.95  45.3197
   6909.48  45.5010
   6919.02  45.6829
   6928.58  45.8655
   6938.15  46.0490
   6947.73  46.2331
   6957.33  46.4180
   6966.94  46.6036
   6976.56  46.7901
   6986.20  46.9775
   6995.85  47.1656
   7005.51  47.3544
   7015.19  47.5440
   7024.88  47.7343
   7034.58  47.9254
   7044.30  48.1174
   7054.03  48.3100
   7063.77  48.5034
   7073.53  48.6976
   7083.30  48.8925
   7093.08  49.0885
   7102.88  49.2851
   7112.69  49.4825
   7122.52  49.6808
   7132.35  49.8798
   7142.21  50.0796
   7152.07  50.2803
   7161.95  50.4817
   7171.84  50.6840
   7181.75  50.8870
   7191.67  51.0908
   7201.60  51.2956
   7211.55  51.5012
   7221.51  51.7077
   7231.49  51.9150
   7241.47  52.1231
   7251.48  52.3321
   7261.49  52.5418
   7271.52  52.7524
   7281.57  52.9640
   7291.62  53.1762
   7301.70  53.3893
   7311.78  53.6034
   7321.88  53.8185
   7332.00  54.0346
   7342.12  54.2515
   7352.26  54.4692
   7362.42  54.6879
   7372.59  54.9073
   7382.77  55.1277
   7392.97  55.3490
   7403.18  55.5711
   7413.41  55.7941
   7423.65  56.0181
   7433.90  56.2430
   7444.17  56.4689
   7454.45  56.6956
   7464.75  56.9232
   7475.06  57.1519
   7485.39  57.3813
   7495.72  57.6117
   7506.08  57.8431
   7516.45  58.0753
   7526.83  58.3086
   7537.23  58.5427
   7547.64  58.7777
   7558.06  59.0139
   7568.50  59.2510
   7578.96  59.4890
   7589.42  59.7281
   7599.91  59.9680
   7610.40  60.2090
   7620.92  60.4509
   7631.44  60.6937
   7641.98  60.9376
   7652.54  61.1824
   7663.11  61.4281
   7673.70  61.6750
   7684.29  61.9230
   7694.91  62.1721
   7705.54  62.4221
   7716.18  62.6732
   7726.84  62.9253
   7737.51  63.1783
   7748.20  63.4324
   7758.90  63.6876
   7769.62  63.9437
   7780.35  64.2008
   7791.10  64.4591
   7801.86  64.7183
   7812.64  64.9788
   7823.43  65.2403
   7834.23  65.5028
   7845.06  65.7664
   7855.89  66.0310
   7866.74  66.2968
   7877.61  66.5635
   7888.49  66.8313
   7899.39  67.1003
   7910.30  67.3703
   7921.22  67.6413
   7932.17  67.9138
   7943.12  68.1872
   7954.09  68.4618
   7965.08  68.7376
   7976.08  69.0144
   7987.10  69.2925
   7998.13  69.5715
   8009.18  69.8516
   8020.24  70.1330
   8031.32  70.4154
   8042.41  70.6990
   8053.52  70.9838
   8064.65  71.2699
   8075.79  71.5571
   8086.94  71.8455
   8098.11  72.1350
   8109.30  72.4257
   8120.50  72.7176
   8131.71  73.0106
   8142.95  73.3048
   8154.19  73.6002
   8165.46  73.8969
   8176.74  74.1946
   8188.03  74.4936
   8199.34  74.7941
   8210.67  75.0956
   8222.01  75.3984
   8233.36  75.7025
   8244.74  76.0077
   8256.13  76.3142
   8267.53  76.6219
   8278.95  76.9307
   8290.38  77.2410
   8301.83  77.5524
   8313.30  77.8650
   8324.79  78.1793
   8336.28  78.4948
   8347.80  78.8115
   8359.33  79.1296
   8370.88  79.4489
   8382.44  79.7696
   8394.02  80.0915
   8405.61  80.4146
   8417.22  80.7392
   8428.85  81.0650
   8440.49  81.3921
   8452.15  81.7207
   8463.82  82.0505
   8475.51  82.3819
   8487.22  82.7145
   8498.95  83.0484
   8510.68  83.3838
   8522.44  83.7204
   8534.21  84.0583
   8546.00  84.3978
   8557.80  84.7385
   8569.63  85.0806
   8581.46  85.4241
   8593.32  85.7691
   8605.19  86.1158
   8617.07  86.4637
   8628.97  86.8130
   8640.89  87.1639
   8652.83  87.5161
   8664.78  87.8698
   8676.75  88.2248
   8688.73  88.5812
   8700.74  88.9393
   8712.75  89.2986
   8724.79  89.6593
   8736.84  90.0220
   8748.91  90.3859
   8760.99  90.7515
   8773.09  91.1184
   8785.21  91.4868
   8797.35  91.8568
   8809.50  92.2281
   8821.67  92.6010
   8833.85  92.9755
   8846.05  93.3514
   8858.27  93.7287
   8870.51  94.1078
   8882.76  94.4884
   8895.03  94.8707
   8907.32  95.2543
   8919.62  95.6395
   8931.94  96.0264
   8944.28  96.4147
   8956.63  96.8045
   8969.00  97.1961
   8981.39  97.5891
   8993.80  97.9839
   9006.22  98.3801
   9018.66  98.7782
   9031.12  99.1783
   9043.59  99.5798
   9056.08  99.9830
   9068.59  100.388
   9081.12  100.794
   9093.66  101.203
   9106.22  101.612
   9118.80  102.024
   9131.40  102.437
   9144.01  102.851
   9156.64  103.268
   9169.29  103.686
   9181.95  104.106
   9194.64  104.528
   9207.34  104.951
   9220.05  105.376
   9232.79  105.803
   9245.54  106.231
   9258.31  106.661
   9271.10  107.094
   9283.91  107.527
   9296.73  107.963
   9309.57  108.400
   9322.43  108.839
   9335.31  109.280
   9348.20  109.723
   9361.12  110.167
   9374.05  110.614
   9386.99  111.062
   9399.96  111.512
   9412.94  111.964
   9425.95  112.417
   9438.97  112.873
   9452.00  113.330
   9465.06  113.789
   9478.13  114.251
   9491.23  114.714
   9504.34  115.180
