 SiO2 Density=2.2, Angle=90.deg
 Photon Energy (eV), Atten Length (microns)
   30.0000  2.008196E-02
   30.3089  2.022794E-02
   30.6210  2.037500E-02
   30.9363  2.052312E-02
   31.2548  2.067228E-02
   31.5766  2.082148E-02
   31.9018  2.097049E-02
   32.2302  2.111913E-02
   32.5621  2.126882E-02
   32.8974  2.141956E-02
   33.2361  2.157137E-02
   33.5783  2.172424E-02
   33.9241  2.187817E-02
   34.2734  2.203319E-02
   34.6263  2.218929E-02
   34.9828  2.234650E-02
   35.3430  2.250480E-02
   35.7069  2.266422E-02
   36.0746  2.282476E-02
   36.4460  2.309351E-02
   36.8213  2.338374E-02
   37.2004  2.369737E-02
   37.5835  2.401512E-02
   37.9705  2.433704E-02
   38.3614  2.466315E-02
   38.7564  2.499354E-02
   39.1555  2.532847E-02
   39.5586  2.566936E-02
   39.9660  2.601640E-02
   40.3775  2.636945E-02
   40.7932  2.672723E-02
   41.2133  2.708984E-02
   41.6376  2.745737E-02
   42.0663  2.782979E-02
   42.4995  2.820723E-02
   42.9371  2.858977E-02
   43.3792  2.897744E-02
   43.8258  2.937034E-02
   44.2771  2.976850E-02
   44.7330  3.017203E-02
   45.1936  3.058100E-02
   45.6589  3.099545E-02
   46.1291  3.141603E-02
   46.6041  3.184297E-02
   47.0839  3.227622E-02
   47.5687  3.271541E-02
   48.0585  3.316051E-02
   48.5534  3.364349E-02
   49.0533  3.416209E-02
   49.5584  3.476914E-02
   50.0687  3.538685E-02
   50.5842  3.601539E-02
   51.1050  3.665499E-02
   51.6312  3.730580E-02
   52.1629  3.796803E-02
   52.7000  3.863973E-02
   53.2426  3.932090E-02
   53.7908  4.001002E-02
   54.3447  4.071084E-02
   54.9043  4.142359E-02
   55.4696  4.214847E-02
   56.0407  4.288571E-02
   56.6178  4.363547E-02
   57.2007  4.439787E-02
   57.7897  4.517320E-02
   58.3847  4.596168E-02
   58.9859  4.676357E-02
   59.5933  4.756942E-02
   60.2069  4.837282E-02
   60.8268  4.918581E-02
   61.4531  5.001046E-02
   62.0859  5.084747E-02
   62.7251  5.169682E-02
   63.3710  5.255870E-02
   64.0235  5.343325E-02
   64.6827  5.432209E-02
   65.3487  5.522519E-02
   66.0216  5.617970E-02
   66.7014  5.715045E-02
   67.3882  5.813734E-02
   68.0821  5.914064E-02
   68.7831  6.016057E-02
   69.4913  6.119746E-02
   70.2068  6.227873E-02
   70.9297  6.339742E-02
   71.6601  6.457883E-02
   72.3979  6.578196E-02
   73.1434  6.700721E-02
   73.8965  6.825504E-02
   74.6574  6.955178E-02
   75.4261  7.090277E-02
   76.2027  7.231964E-02
   76.9874  7.376615E-02
   77.7801  7.523795E-02
   78.5809  7.673338E-02
   79.3901  7.822644E-02
   80.2075  7.963116E-02
   81.0334  8.106116E-02
   81.8677  8.251689E-02
   82.7107  8.399869E-02
   83.5623  8.550446E-02
   84.4228  8.703449E-02
   85.2920  8.850311E-02
   86.1702  8.998814E-02
   87.0575  9.149636E-02
   87.9539  9.302793E-02
   88.8595  9.458321E-02
   89.7745  9.616247E-02
   90.6988  9.775633E-02
   91.6327  9.936603E-02
   92.5762  0.100971
   93.5295  0.102597
   94.4925  0.104245
   95.4655  0.105916
   96.4484  0.107599
   97.4415  0.109291
   98.4448  0.111029
   99.4585  0.112876
   100.483  7.516150E-02
   101.517  6.549232E-02
   102.562  7.472394E-02
   103.619  8.097756E-02
   104.685  8.285502E-02
   105.763  7.963113E-02
   106.852  7.535116E-02
   107.953  7.394226E-02
   109.064  7.355122E-02
   110.187  7.298525E-02
   111.322  7.146219E-02
   112.468  7.053878E-02
   113.626  7.003190E-02
   114.796  6.878088E-02
   115.978  6.678614E-02
   117.172  6.470196E-02
   118.379  6.357971E-02
   119.597  6.331437E-02
   120.829  6.303206E-02
   122.073  6.285185E-02
   123.330  6.308382E-02
   124.600  6.335036E-02
   125.883  6.373086E-02
   127.179  6.395268E-02
   128.488  6.396411E-02
   129.811  6.384162E-02
   131.148  6.360637E-02
   132.498  6.381708E-02
   133.863  6.492159E-02
   135.241  6.726269E-02
   136.634  6.960820E-02
   138.040  7.114032E-02
   139.462  7.184502E-02
   140.898  7.228455E-02
   142.349  7.329404E-02
   143.814  7.361656E-02
   145.295  7.360180E-02
   146.791  7.381995E-02
   148.303  7.422020E-02
   149.830  7.513971E-02
   151.372  7.463776E-02
   152.931  7.502938E-02
   154.506  7.822715E-02
   156.096  7.934653E-02
   157.704  7.942908E-02
   159.328  7.919031E-02
   160.968  7.885182E-02
   162.626  7.832780E-02
   164.300  7.819922E-02
   165.992  7.872193E-02
   167.701  7.906094E-02
   169.428  7.988416E-02
   171.172  8.177061E-02
   172.935  8.493017E-02
   174.715  8.862390E-02
   176.514  9.219785E-02
   178.332  9.473407E-02
   180.168  9.637765E-02
   182.023  9.805542E-02
   183.897  9.984673E-02
   185.791  0.101697
   187.704  0.103591
   189.637  0.105540
   191.589  0.107558
   193.562  0.109611
   195.555  0.111701
   197.568  0.113828
   199.603  0.115992
   201.658  0.118183
   203.734  0.120342
   205.832  0.122508
   207.952  0.124687
   210.093  0.126901
   212.256  0.129150
   214.441  0.131435
   216.650  0.133756
   218.880  0.136134
   221.134  0.138598
   223.411  0.141373
   225.711  0.144302
   228.035  0.147289
   230.383  0.150336
   232.756  0.153443
   235.152  0.156612
   237.573  0.159829
   240.020  0.163091
   242.491  0.166343
   244.988  0.169658
   247.510  0.173039
   250.059  0.176650
   252.634  0.180392
   255.235  0.184242
   257.863  0.188173
   260.518  0.192188
   263.201  0.196288
   265.911  0.200475
   268.649  0.204750
   271.415  0.209116
   274.209  0.213578
   277.033  0.218137
   279.885  0.222799
   282.767  0.227562
   285.679  0.232428
   288.620  0.237399
   291.592  0.242474
   294.594  0.247658
   297.628  0.253017
   300.692  0.258546
   303.788  0.264295
   306.916  0.270174
   310.077  0.276182
   313.269  0.282324
   316.495  0.288601
   319.754  0.295018
   323.046  0.301576
   326.372  0.308279
   329.733  0.315131
   333.128  0.322134
   336.558  0.329292
   340.024  0.336608
   343.525  0.344087
   347.062  0.351730
   350.635  0.359543
   354.246  0.367528
   357.893  0.375690
   361.578  0.384032
   365.301  0.392711
   369.063  0.402297
   372.863  0.412261
   376.702  0.422565
   380.581  0.433127
   384.499  0.443958
   388.459  0.455067
   392.458  0.466473
   396.499  0.478167
   400.582  0.490155
   404.707  0.502446
   408.874  0.515045
   413.084  0.527961
   417.337  0.541199
   421.634  0.554769
   425.976  0.568678
   430.362  0.582936
   434.793  0.597552
   439.270  0.612535
   443.793  0.627893
   448.362  0.643636
   452.979  0.659769
   457.643  0.676340
   462.355  0.693430
   467.116  0.711349
   471.926  0.729917
   476.785  0.748969
   481.694  0.768518
   486.654  0.788579
   491.665  0.809160
   496.727  0.830277
   501.842  0.851946
   507.009  0.874187
   512.230  0.897006
   517.504  0.920419
   522.832  0.944441
   528.216  0.969091
   533.655  0.994382
   539.150  1.02033
   544.701  0.301919
   550.310  0.309674
   555.976  0.317628
   561.701  0.325785
   567.484  0.334138
   573.327  0.342647
   579.231  0.351322
   585.195  0.360250
   591.220  0.369429
   597.308  0.378874
   603.458  0.388563
   609.672  0.398500
   615.949  0.408692
   622.291  0.419157
   628.699  0.429925
   635.172  0.441150
   641.712  0.452854
   648.320  0.465010
   654.995  0.477714
   661.740  0.490765
   668.553  0.504174
   675.437  0.517338
   682.392  0.530588
   689.418  0.543791
   696.517  0.557147
   703.689  0.570831
   710.934  0.585263
   718.254  0.600319
   725.650  0.615930
   733.122  0.631928
   740.670  0.648346
   748.297  0.665196
   756.002  0.682493
   763.786  0.700271
   771.650  0.718570
   779.596  0.737592
   787.623  0.757244
   795.733  0.777737
   803.926  0.798905
   812.204  0.820807
   820.567  0.843308
   829.016  0.866427
   837.552  0.890181
   846.176  0.914250
   854.888  0.938800
   863.691  0.963761
   872.584  0.989079
   881.569  1.01499
   890.646  1.04159
   899.816  1.06906
   909.081  1.09746
   918.442  1.12683
   927.899  1.15762
   937.453  1.18974
   947.106  1.22304
   956.858  1.25739
   966.710  1.29285
   976.664  1.32932
   986.720  1.36680
   996.880  1.40533
   1007.14  1.44491
   1017.51  1.48554
   1027.99  1.52702
   1038.58  1.56980
   1049.27  1.61390
   1060.07  1.65954
   1070.99  1.70648
   1082.02  1.75474
   1093.16  1.80390
   1104.41  1.85416
   1115.79  1.90536
   1127.27  1.95796
   1138.88  2.01202
   1150.61  2.06757
   1162.46  2.12466
   1174.42  2.18334
   1186.52  2.24365
   1198.73  2.30563
   1211.08  2.36934
   1223.55  2.43483
   1236.15  2.50222
   1248.87  2.57162
   1261.73  2.64316
   1274.72  2.71684
   1287.85  2.79290
   1301.11  2.87113
   1314.51  2.95161
   1328.04  3.03433
   1341.72  3.11939
   1355.53  3.20685
   1369.49  3.29672
   1383.59  3.38913
   1397.84  3.48417
   1412.23  3.58195
   1426.77  3.68249
   1441.46  3.78584
   1456.30  3.89222
   1471.30  4.00168
   1486.45  4.11454
   1501.75  4.23155
   1517.22  4.35296
   1532.84  4.47805
   1548.62  4.60672
   1564.57  4.73908
   1580.68  4.87534
   1596.95  5.01553
   1613.40  5.15976
   1630.01  5.30810
   1646.79  5.46072
   1663.75  5.61777
   1680.88  5.77933
   1698.19  5.94555
   1715.67  6.11654
   1733.34  6.29327
   1751.18  6.47662
   1769.22  6.66585
   1787.43  6.86085
   1805.84  7.06199
   1824.43  7.26905
   1843.22  2.22448
   1862.20  2.28183
   1881.37  2.34065
   1900.74  2.40099
   1920.31  2.46288
   1940.09  2.52637
   1960.06  2.59149
   1980.24  2.65829
   2000.63  2.72691
   2021.23  2.79730
   2042.05  2.86985
   2063.07  2.94439
   2084.31  3.02109
   2105.78  3.10089
   2127.46  3.18296
   2149.36  3.26731
   2171.49  3.35423
   2193.85  3.44367
   2216.44  3.53575
   2239.26  3.63048
   2262.32  3.72790
   2285.62  3.82824
   2309.15  3.93158
   2332.93  4.03787
   2356.95  4.14727
   2381.22  4.25994
   2405.73  4.37592
   2430.51  4.49530
   2455.53  4.61817
   2480.81  4.74463
   2506.36  4.87492
   2532.17  5.00894
   2558.24  5.14682
   2584.58  5.28896
   2611.19  5.43524
   2638.08  5.58580
   2665.24  5.74075
   2692.68  5.90020
   2720.41  6.06476
   2748.42  6.23404
   2776.72  6.40817
   2805.31  6.58755
   2834.20  6.77220
   2863.38  6.96241
   2892.86  7.15827
   2922.65  7.35991
   2952.74  7.56774
   2983.15  7.78164
   3013.86  8.00176
   3044.89  8.22858
   3076.25  8.46220
   3107.92  8.70279
   3139.92  8.95051
   3172.25  9.20564
   3204.92  9.46852
   3237.92  9.73930
   3271.26  10.0180
   3304.94  10.3051
   3338.97  10.6011
   3373.35  10.9059
   3408.08  11.2197
   3443.17  11.5430
   3478.63  11.8760
   3514.45  12.2193
   3550.63  12.5727
   3587.19  12.9367
   3624.13  13.3121
   3661.44  13.6989
   3699.14  14.0971
   3737.23  14.5074
   3775.71  14.9300
   3814.59  15.3660
   3853.87  15.8149
   3893.55  16.2773
   3933.64  16.7541
   3974.14  17.2453
   4015.06  17.7517
   4056.40  18.2733
   4098.17  18.8106
   4140.37  19.3645
   4183.00  19.9350
   4226.07  20.5226
   4269.59  21.1282
   4313.55  21.7523
   4357.96  22.3952
   4402.83  23.0577
   4448.17  23.7404
   4493.97  24.4440
   4540.24  25.1691
   4586.99  25.9160
   4634.22  26.6857
   4681.94  27.4793
   4730.15  28.2970
   4778.85  29.1394
   4828.06  30.0075
   4877.77  30.9018
   4928.00  31.8238
   4978.74  32.7737
   5030.00  33.7524
   5036.95  33.8867
   5043.91  34.0217
   5050.87  34.1571
   5057.85  34.2930
   5064.83  34.4296
   5071.83  34.5667
   5078.84  34.7043
   5085.85  34.8425
   5092.88  34.9812
   5099.91  35.1205
   5106.96  35.2603
   5114.01  35.4007
   5121.07  35.5417
   5128.15  35.6832
   5135.23  35.8254
   5142.32  35.9681
   5149.43  36.1113
   5156.54  36.2552
   5163.66  36.3996
   5170.79  36.5446
   5177.94  36.6902
   5185.09  36.8363
   5192.25  36.9831
   5199.42  37.1304
   5206.60  37.2783
   5213.80  37.4269
   5221.00  37.5760
   5228.21  37.7258
   5235.43  37.8762
   5242.66  38.0271
   5249.90  38.1787
   5257.16  38.3308
   5264.42  38.4836
   5271.69  38.6370
   5278.97  38.7910
   5286.26  38.9458
   5293.56  39.1012
   5300.88  39.2572
   5308.20  39.4140
   5315.53  39.5713
   5322.87  39.7292
   5330.23  39.8878
   5337.59  40.0469
   5344.96  40.2067
   5352.34  40.3673
   5359.74  40.5284
   5367.14  40.6902
   5374.55  40.8527
   5381.98  41.0158
   5389.41  41.1796
   5396.85  41.3441
   5404.31  41.5092
   5411.77  41.6750
   5419.25  41.8414
   5426.73  42.0085
   5434.23  42.1764
   5441.74  42.3448
   5449.25  42.5140
   5456.78  42.6839
   5464.32  42.8546
   5471.87  43.0260
   5479.42  43.1980
   5486.99  43.3708
   5494.57  43.5443
   5502.16  43.7184
   5509.76  43.8933
   5517.37  44.0688
   5524.99  44.2450
   5532.62  44.4220
   5540.27  44.5997
   5547.92  44.7782
   5555.58  44.9574
   5563.26  45.1374
   5570.94  45.3181
   5578.63  45.4995
   5586.34  45.6816
   5594.06  45.8645
   5601.78  46.0481
   5609.52  46.2324
   5617.27  46.4175
   5625.03  46.6033
   5632.80  46.7900
   5640.58  46.9774
   5648.37  47.1656
   5656.17  47.3546
   5663.98  47.5443
   5671.81  47.7348
   5679.64  47.9261
   5687.49  48.1181
   5695.34  48.3108
   5703.21  48.5044
   5711.09  48.6987
   5718.98  48.8939
   5726.88  49.0899
   5734.79  49.2867
   5742.71  49.4844
   5750.64  49.6828
   5758.58  49.8820
   5766.54  50.0821
   5774.50  50.2828
   5782.48  50.4846
   5790.47  50.6870
   5798.46  50.8902
   5806.47  51.0943
   5814.49  51.2992
   5822.52  51.5050
   5830.57  51.7117
   5838.62  51.9191
   5846.69  52.1275
   5854.76  52.3367
   5862.85  52.5466
   5870.95  52.7576
   5879.06  52.9692
   5887.18  53.1817
   5895.31  53.3952
   5903.45  53.6094
   5911.61  53.8248
   5919.77  54.0410
   5927.95  54.2581
   5936.14  54.4762
   5944.34  54.6950
   5952.55  54.9148
   5960.77  55.1355
   5969.00  55.3570
   5977.25  55.5794
   5985.50  55.8028
   5993.77  56.0270
   6002.05  56.2523
   6010.34  56.4784
   6018.64  56.7055
   6026.96  56.9336
   6035.28  57.1626
   6043.62  57.3924
   6051.97  57.6233
   6060.32  57.8550
   6068.70  58.0877
   6077.08  58.3213
   6085.47  58.5557
   6093.88  58.7913
   6102.29  59.0277
   6110.72  59.2651
   6119.16  59.5036
   6127.62  59.7430
   6136.08  59.9835
   6144.56  60.2248
   6153.04  60.4671
   6161.54  60.7105
   6170.05  60.9547
   6178.58  61.2000
   6187.11  61.4463
   6195.66  61.6935
   6204.21  61.9419
   6212.78  62.1913
   6221.37  62.4416
   6229.96  62.6931
   6238.56  62.9455
   6247.18  63.1988
   6255.81  63.4534
   6264.45  63.7088
   6273.10  63.9653
   6281.77  64.2228
   6290.45  64.4813
   6299.14  64.7410
   6307.84  65.0016
   6316.55  65.2633
   6325.27  65.5261
   6334.01  65.7899
   6342.76  66.0549
   6351.52  66.3211
   6360.29  66.5890
   6369.08  66.8580
   6377.88  67.1279
   6386.69  67.3990
   6395.51  67.6713
   6404.34  67.9446
   6413.19  68.2189
   6422.05  68.4945
   6430.92  68.7711
   6439.80  69.0486
   6448.70  69.3271
   6457.60  69.6067
   6466.52  69.8876
   6475.45  70.1694
   6484.40  70.4524
   6493.36  70.7366
   6502.32  71.0219
   6511.31  71.3084
   6520.30  71.5960
   6529.31  71.8847
   6538.33  72.1748
   6547.36  72.4662
   6556.40  72.7587
   6565.46  73.0526
   6574.52  73.3475
   6583.61  73.6437
   6592.70  73.9409
   6601.81  74.2394
   6610.92  74.5392
   6620.06  74.8401
   6629.20  75.1422
   6638.36  75.4456
   6647.53  75.7504
   6656.71  76.0568
   6665.90  76.3642
   6675.11  76.6729
   6684.33  76.9829
   6693.56  77.2941
   6702.81  77.6065
   6712.07  77.9204
   6721.34  78.2353
   6730.62  78.5517
   6739.92  78.8692
   6749.23  79.1880
   6758.55  79.5084
   6767.89  79.8299
   6777.24  80.1528
   6786.60  80.4771
   6795.97  80.8026
   6805.36  81.1293
   6814.76  81.4576
   6824.17  81.7870
   6833.60  82.1179
   6843.04  82.4500
   6852.49  82.7834
   6861.95  83.1185
   6871.43  83.4548
   6880.92  83.7924
   6890.43  84.1317
   6899.95  84.4721
   6909.48  84.8140
   6919.02  85.1572
   6928.58  85.5017
   6938.15  85.8478
   6947.73  86.1951
   6957.33  86.5439
   6966.94  86.8942
   6976.56  87.2461
   6986.20  87.5996
   6995.85  87.9544
   7005.51  88.3107
   7015.19  88.6685
   7024.88  89.0276
   7034.58  89.3882
   7044.30  89.7504
   7054.03  90.1139
   7063.77  90.4789
   7073.53  90.8455
   7083.30  91.2134
   7093.08  91.5833
   7102.88  91.9545
   7112.69  92.3272
   7122.52  92.7015
   7132.35  93.0772
   7142.21  93.4544
   7152.07  93.8334
   7161.95  94.2136
   7171.84  94.5956
   7181.75  94.9790
   7191.67  95.3638
   7201.60  95.7506
   7211.55  96.1389
   7221.51  96.5288
   7231.49  96.9204
   7241.47  97.3134
   7251.48  97.7082
   7261.49  98.1044
   7271.52  98.5022
   7281.57  98.9018
   7291.62  99.3028
   7301.70  99.7054
   7311.78  100.110
   7321.88  100.516
   7332.00  100.924
   7342.12  101.334
   7352.26  101.745
   7362.42  102.159
   7372.59  102.573
   7382.77  102.989
   7392.97  103.408
   7403.18  103.827
   7413.41  104.249
   7423.65  104.672
   7433.90  105.097
   7444.17  105.524
   7454.45  105.953
   7464.75  106.383
   7475.06  106.815
   7485.39  107.249
   7495.72  107.685
   7506.08  108.122
   7516.45  108.561
   7526.83  109.002
   7537.23  109.445
   7547.64  109.889
   7558.06  110.336
   7568.50  110.784
   7578.96  111.235
   7589.42  111.687
   7599.91  112.140
   7610.40  112.596
   7620.92  113.054
   7631.44  113.513
   7641.98  113.974
   7652.54  114.437
   7663.11  114.902
   7673.70  115.369
   7684.29  115.839
   7694.91  116.310
   7705.54  116.783
   7716.18  117.258
   7726.84  117.735
   7737.51  118.214
   7748.20  118.695
   7758.90  119.177
   7769.62  119.662
   7780.35  120.149
   7791.10  120.637
   7801.86  121.128
   7812.64  121.621
   7823.43  122.116
   7834.23  122.613
   7845.06  123.112
   7855.89  123.613
   7866.74  124.116
   7877.61  124.621
   7888.49  125.128
   7899.39  125.637
   7910.30  126.148
   7921.22  126.662
   7932.17  127.177
   7943.12  127.695
   7954.09  128.215
   7965.08  128.737
   7976.08  129.261
   7987.10  129.787
   7998.13  130.316
   8009.18  130.846
   8020.24  131.379
   8031.32  131.914
   8042.41  132.451
   8053.52  132.990
   8064.65  133.532
   8075.79  134.077
   8086.94  134.623
   8098.11  135.171
   8109.30  135.722
   8120.50  136.275
   8131.71  136.830
   8142.95  137.388
   8154.19  137.948
   8165.46  138.510
   8176.74  139.074
   8188.03  139.641
   8199.34  140.210
   8210.67  140.782
   8222.01  141.355
   8233.36  141.932
   8244.74  142.510
   8256.13  143.091
   8267.53  143.675
   8278.95  144.260
   8290.38  144.848
   8301.83  145.439
   8313.30  146.031
   8324.79  146.627
   8336.28  147.225
   8347.80  147.826
   8359.33  148.429
   8370.88  149.035
   8382.44  149.643
   8394.02  150.253
   8405.61  150.866
   8417.22  151.482
   8428.85  152.099
   8440.49  152.720
   8452.15  153.343
   8463.82  153.969
   8475.51  154.597
   8487.22  155.228
   8498.95  155.861
   8510.68  156.498
   8522.44  157.136
   8534.21  157.777
   8546.00  158.421
   8557.80  159.068
   8569.63  159.717
   8581.46  160.368
   8593.32  161.023
   8605.19  161.681
   8617.07  162.341
   8628.97  163.004
   8640.89  163.670
   8652.83  164.338
   8664.78  165.009
   8676.75  165.683
   8688.73  166.359
   8700.74  167.039
   8712.75  167.721
   8724.79  168.406
   8736.84  169.094
   8748.91  169.785
   8760.99  170.479
   8773.09  171.175
   8785.21  171.875
   8797.35  172.577
   8809.50  173.282
   8821.67  173.990
   8833.85  174.701
   8846.05  175.414
   8858.27  176.131
   8870.51  176.851
   8882.76  177.573
   8895.03  178.299
   8907.32  179.028
   8919.62  179.759
   8931.94  180.494
   8944.28  181.231
   8956.63  181.972
   8969.00  182.716
   8981.39  183.462
   8993.80  184.212
   9006.22  184.965
   9018.66  185.721
   9031.12  186.481
   9043.59  187.243
   9056.08  188.009
   9068.59  188.778
   9081.12  189.550
   9093.66  190.326
   9106.22  191.104
   9118.80  191.886
   9131.40  192.671
   9144.01  193.458
   9156.64  194.249
   9169.29  195.044
   9181.95  195.842
   9194.64  196.643
   9207.34  197.448
   9220.05  198.256
   9232.79  199.067
   9245.54  199.881
   9258.31  200.699
   9271.10  201.520
   9283.91  202.344
