 W Density=19.3, Angle=90.deg
 Photon Energy (eV), Atten Length (microns)
   30.0000  1.606545E-02
   30.3089  1.647491E-02
   30.6210  1.689476E-02
   30.9363  1.731121E-02
   31.2548  1.772639E-02
   31.5766  1.809807E-02
   31.9018  1.847753E-02
   32.2302  1.886492E-02
   32.5621  1.922336E-02
   32.8974  1.955013E-02
   33.2361  1.981463E-02
   33.5783  2.008269E-02
   33.9241  2.035438E-02
   34.2734  2.062975E-02
   34.6263  2.072759E-02
   34.9828  2.070620E-02
   35.3430  2.045566E-02
   35.7069  2.020812E-02
   36.0746  1.996355E-02
   36.4460  1.972198E-02
   36.8213  1.909425E-02
   37.2004  1.788093E-02
   37.5835  1.659769E-02
   37.9705  1.534532E-02
   38.3614  1.410329E-02
   38.7564  1.296187E-02
   39.1555  1.191286E-02
   39.5586  1.094850E-02
   39.9660  9.885610E-03
   40.3775  8.795382E-03
   40.7932  8.190063E-03
   41.2133  7.853113E-03
   41.6376  7.839236E-03
   42.0663  7.825335E-03
   42.4995  7.884607E-03
   42.9371  8.136240E-03
   43.3792  8.430911E-03
   43.8258  8.781915E-03
   44.2771  9.336141E-03
   44.7330  9.684314E-03
   45.1936  9.868350E-03
   45.6589  9.970944E-03
   46.1291  9.965193E-03
   46.6041  9.827106E-03
   47.0839  9.535426E-03
   47.5687  9.200659E-03
   48.0585  8.811518E-03
   48.5534  8.406880E-03
   49.0533  8.010699E-03
   49.5584  7.633186E-03
   50.0687  7.317030E-03
   50.5842  7.048549E-03
   51.1050  6.944345E-03
   51.6312  6.878381E-03
   52.1629  6.851770E-03
   52.7000  6.928216E-03
   53.2426  7.014746E-03
   53.7908  7.102360E-03
   54.3447  7.227592E-03
   54.9043  7.381804E-03
   55.4696  7.599786E-03
   56.0407  7.824244E-03
   56.6178  8.055348E-03
   57.2007  8.293249E-03
   57.7897  8.538162E-03
   58.3847  8.790307E-03
   58.9859  9.049919E-03
   59.5933  9.317184E-03
   60.2069  9.592310E-03
   60.8268  9.875598E-03
   61.4531  1.016726E-02
   62.0859  1.046750E-02
   62.7251  1.077664E-02
   63.3710  1.109493E-02
   64.0235  1.142258E-02
   64.6827  1.177308E-02
   65.3487  1.214510E-02
   66.0216  1.255970E-02
   66.7014  1.298868E-02
   67.3882  1.343224E-02
   68.0821  1.389109E-02
   68.7831  1.436560E-02
   69.4913  1.485630E-02
   70.2068  1.536375E-02
   70.9297  1.588891E-02
   71.6601  1.643410E-02
   72.3979  1.703997E-02
   73.1434  1.769800E-02
   73.8965  1.838150E-02
   74.6574  1.909135E-02
   75.4261  1.982863E-02
   76.2027  2.059435E-02
   76.9874  2.138967E-02
   77.7801  2.221571E-02
   78.5809  2.307364E-02
   79.3901  2.396468E-02
   80.2075  2.489016E-02
   81.0334  2.569893E-02
   81.8677  2.643960E-02
   82.7107  2.716538E-02
   83.5623  2.791107E-02
   84.4228  2.867723E-02
   85.2920  2.946445E-02
   86.1702  3.015693E-02
   87.0575  3.065961E-02
   87.9539  3.106831E-02
   88.8595  3.145636E-02
   89.7745  3.184927E-02
   90.6988  3.224707E-02
   91.6327  3.260806E-02
   92.5762  3.259455E-02
   93.5295  3.256863E-02
   94.4925  3.253191E-02
   95.4655  3.249520E-02
   96.4484  3.245854E-02
   97.4415  3.242196E-02
   98.4448  3.233931E-02
   99.4585  3.224407E-02
   100.483  3.213904E-02
   101.517  3.203424E-02
   102.562  3.192972E-02
   103.619  3.182544E-02
   104.685  3.172170E-02
   105.763  3.161843E-02
   106.852  3.151517E-02
   107.953  3.141227E-02
   109.064  3.130979E-02
   110.187  3.117708E-02
   111.322  3.103417E-02
   112.468  3.087766E-02
   113.626  3.072191E-02
   114.796  3.056692E-02
   115.978  3.041261E-02
   117.172  3.025922E-02
   118.379  3.010672E-02
   119.597  2.995488E-02
   120.829  2.980370E-02
   122.073  2.965317E-02
   123.330  2.950371E-02
   124.600  2.935497E-02
   125.883  2.920682E-02
   127.179  2.905951E-02
   128.488  2.891615E-02
   129.811  2.878554E-02
   131.148  2.866792E-02
   132.498  2.855763E-02
   133.863  2.844744E-02
   135.241  2.833774E-02
   136.634  2.822851E-02
   138.040  2.811975E-02
   139.462  2.801136E-02
   140.898  2.790329E-02
   142.349  2.779585E-02
   143.814  2.768884E-02
   145.295  2.758214E-02
   146.791  2.747584E-02
   148.303  2.736995E-02
   149.830  2.726458E-02
   151.372  2.716968E-02
   152.931  2.708348E-02
   154.506  2.701776E-02
   156.096  2.695254E-02
   157.704  2.688734E-02
   159.328  2.682225E-02
   160.968  2.675736E-02
   162.626  2.669272E-02
   164.300  2.665559E-02
   165.992  2.663019E-02
   167.701  2.660903E-02
   169.428  2.658787E-02
   171.172  2.656669E-02
   172.935  2.654545E-02
   174.715  2.654554E-02
   176.514  2.657176E-02
   178.332  2.660289E-02
   180.168  2.663468E-02
   182.023  2.666642E-02
   183.897  2.669818E-02
   185.791  2.672665E-02
   187.704  2.674048E-02
   189.637  2.674973E-02
   191.589  2.675613E-02
   193.562  2.676259E-02
   195.555  2.676910E-02
   197.568  2.677567E-02
   199.603  2.678217E-02
   201.658  2.678866E-02
   203.734  2.679516E-02
   205.832  2.681441E-02
   207.952  2.683783E-02
   210.093  2.686370E-02
   212.256  2.688961E-02
   214.441  2.691556E-02
   216.650  2.694152E-02
   218.880  2.696754E-02
   221.134  2.699358E-02
   223.411  2.701961E-02
   225.711  2.704570E-02
   228.035  2.707186E-02
   230.383  2.709801E-02
   232.756  2.712415E-02
   235.152  2.715024E-02
   237.573  2.717648E-02
   240.020  2.720278E-02
   242.491  2.722899E-02
   244.988  2.725527E-02
   247.510  2.728162E-02
   250.059  2.730790E-02
   252.634  2.733422E-02
   255.235  2.736064E-02
   257.863  2.738700E-02
   260.518  2.741341E-02
   263.201  2.743994E-02
   265.911  2.746643E-02
   268.649  2.751953E-02
   271.415  2.771332E-02
   274.209  2.791316E-02
   277.033  2.811765E-02
   279.885  2.832365E-02
   282.767  2.853114E-02
   285.679  2.874013E-02
   288.620  2.895064E-02
   291.592  2.916270E-02
   294.594  2.937638E-02
   297.628  2.959154E-02
   300.692  2.981008E-02
   303.788  3.003785E-02
   306.916  3.027702E-02
   310.077  3.052384E-02
   313.269  3.077272E-02
   316.495  3.102359E-02
   319.754  3.127651E-02
   323.046  3.153154E-02
   326.372  3.178860E-02
   329.733  3.204767E-02
   333.128  3.230897E-02
   336.558  3.257389E-02
   340.024  3.284590E-02
   343.525  3.312349E-02
   347.062  3.340508E-02
   350.635  3.368907E-02
   354.246  3.397551E-02
   357.893  3.426442E-02
   361.578  3.455577E-02
   365.301  3.484778E-02
   369.063  3.513955E-02
   372.863  3.538086E-02
   376.702  3.561327E-02
   380.581  3.584721E-02
   384.499  3.608267E-02
   388.459  3.631969E-02
   392.458  3.655829E-02
   396.499  3.679839E-02
   400.582  3.704005E-02
   404.707  3.728331E-02
   408.874  3.752823E-02
   413.084  3.777484E-02
   417.337  3.800857E-02
   421.634  3.824094E-02
   425.976  3.847326E-02
   430.362  3.870707E-02
   434.793  3.894231E-02
   439.270  3.917887E-02
   443.793  3.941683E-02
   448.362  3.966036E-02
   452.979  4.000657E-02
   457.643  4.039329E-02
   462.355  4.082597E-02
   467.116  4.129991E-02
   471.926  4.178339E-02
   476.785  4.227305E-02
   481.694  4.276862E-02
   486.654  4.327000E-02
   491.665  4.377703E-02
   496.727  4.428928E-02
   501.842  4.480722E-02
   507.009  4.533220E-02
   512.230  4.586723E-02
   517.504  4.641239E-02
   522.832  4.698938E-02
   528.216  4.759504E-02
   533.655  4.824198E-02
   539.150  4.891943E-02
   544.701  4.961102E-02
   550.310  5.031072E-02
   555.976  5.103225E-02
   561.701  5.176853E-02
   567.484  5.250425E-02
   573.327  5.316661E-02
   579.231  5.376663E-02
   585.195  5.433237E-02
   591.220  5.489194E-02
   597.308  5.544118E-02
   603.458  5.599592E-02
   609.672  5.655627E-02
   615.949  5.712247E-02
   622.291  5.770134E-02
   628.699  5.830700E-02
   635.172  5.902476E-02
   641.712  5.985977E-02
   648.320  6.078779E-02
   654.995  6.185639E-02
   661.740  6.294387E-02
   668.553  6.405057E-02
   675.437  6.511872E-02
   682.392  6.618053E-02
   689.418  6.722382E-02
   696.517  6.827804E-02
   703.689  6.936143E-02
   710.934  7.052770E-02
   718.254  7.174883E-02
   725.650  7.301334E-02
   733.122  7.429995E-02
   740.670  7.560945E-02
   748.297  7.694230E-02
   756.002  7.830001E-02
   763.786  7.968605E-02
   771.650  8.110457E-02
   779.596  8.258224E-02
   787.623  8.410425E-02
   795.733  8.568336E-02
   803.926  8.729248E-02
   812.204  8.893203E-02
   820.567  9.060278E-02
   829.016  9.230506E-02
   837.552  9.403948E-02
   846.176  9.581815E-02
   854.888  9.763622E-02
   863.691  9.949722E-02
   872.584  0.101403
   881.569  0.103349
   890.646  0.105331
   899.816  0.107353
   909.081  0.109414
   918.442  0.111515
   927.899  0.113676
   937.453  0.115896
   947.106  0.118169
   956.858  0.120491
   966.710  0.122865
   976.664  0.125286
   986.720  0.127757
   996.880  0.130282
   1007.14  0.132863
   1017.51  0.135509
   1027.99  0.138275
   1038.58  0.141110
   1049.27  0.144013
   1060.07  0.146998
   1070.99  0.150047
   1082.02  0.153160
   1093.16  0.156339
   1104.41  0.159584
   1115.79  0.162898
   1127.27  0.166283
   1138.88  0.169738
   1150.61  0.173267
   1162.46  0.176868
   1174.42  0.180544
   1186.52  0.184300
   1198.73  0.188133
   1211.08  0.192045
   1223.55  0.196041
   1236.15  0.200144
   1248.87  0.204375
   1261.73  0.208755
   1274.72  0.213265
   1287.85  0.217948
   1301.11  0.222732
   1314.51  0.227620
   1328.04  0.232618
   1341.72  0.237729
   1355.53  0.242955
   1369.49  0.248297
   1383.59  0.253757
   1397.84  0.259341
   1412.23  0.265047
   1426.77  0.270878
   1441.46  0.276839
   1456.30  0.282939
   1471.30  0.289181
   1486.45  0.295581
   1501.75  0.302160
   1517.22  0.308914
   1532.84  0.315831
   1548.62  0.322902
   1564.57  0.330131
   1580.68  0.337528
   1596.95  0.345094
   1613.40  0.352833
   1630.01  0.360744
   1646.79  0.368836
   1663.75  0.377120
   1680.88  0.385591
   1698.19  0.394251
   1715.67  0.403102
   1733.34  0.412207
   1751.18  0.421579
   1769.22  0.431188
   1787.43  0.441020
   1805.84  0.451076
   1824.43  0.151920
   1843.22  0.155020
   1862.20  0.158183
   1881.37  0.109156
   1900.74  0.111907
   1920.31  0.114727
   1940.09  0.117618
   1960.06  0.120582
   1980.24  0.123622
   2000.63  0.126738
   2021.23  0.129908
   2042.05  0.133179
   2063.07  0.136539
   2084.31  0.139982
   2105.78  0.143513
   2127.46  0.147130
   2149.36  0.150841
   2171.49  0.154647
   2193.85  0.158547
   2216.44  0.162545
   2239.26  0.166645
   2262.32  0.170850
   2285.62  0.150328
   2309.15  0.154356
   2332.93  0.158492
   2356.95  0.162742
   2381.22  0.167102
   2405.73  0.171578
   2430.51  0.176176
   2455.53  0.180898
   2480.81  0.185740
   2506.36  0.190713
   2532.17  0.195822
   2558.24  0.201063
   2584.58  0.193184
   2611.19  0.198209
   2638.08  0.203361
   2665.24  0.208642
   2692.68  0.214056
   2720.41  0.219614
   2748.42  0.225316
   2776.72  0.231165
   2805.31  0.237165
   2834.20  0.232725
   2863.38  0.238451
   2892.86  0.244328
   2922.65  0.250360
   2952.74  0.256546
   2983.15  0.262908
   3013.86  0.269431
   3044.89  0.276127
   3076.25  0.283005
   3107.92  0.290073
   3139.92  0.297327
   3172.25  0.304767
   3204.92  0.312408
   3237.92  0.320259
   3271.26  0.328306
   3304.94  0.336573
   3338.97  0.345059
   3373.35  0.353766
   3408.08  0.362704
   3443.17  0.371890
   3478.63  0.381303
   3514.45  0.390975
   3550.63  0.400911
   3587.19  0.411099
   3624.13  0.421558
   3661.44  0.432297
   3699.14  0.443315
   3737.23  0.454623
   3775.71  0.466239
   3814.59  0.478161
   3853.87  0.490392
   3893.55  0.502945
   3933.64  0.515831
   3974.14  0.529070
   4015.06  0.542660
   4056.40  0.556606
   4098.17  0.570922
   4140.37  0.585620
   4183.00  0.600706
   4226.07  0.616188
   4269.59  0.632085
   4313.55  0.648408
   4357.96  0.665161
   4402.83  0.682364
   4448.17  0.700019
   4493.97  0.718145
   4540.24  0.736755
   4586.99  0.755863
   4634.22  0.775479
   4681.94  0.795617
   4730.15  0.816292
   4778.85  0.837517
   4828.06  0.859310
   4877.77  0.881693
   4928.00  0.904674
   4978.74  0.928263
   5030.00  0.952472
   5036.95  0.955785
   5043.91  0.959111
   5050.87  0.962447
   5057.85  0.965794
   5064.83  0.969155
   5071.83  0.972526
   5078.84  0.975910
   5085.85  0.979305
   5092.88  0.982711
   5099.91  0.986133
   5106.96  0.989565
   5114.01  0.993011
   5121.07  0.996467
   5128.15  0.999935
   5135.23  1.00342
   5142.32  1.00691
   5149.43  1.01041
   5156.54  1.01393
   5163.66  1.01746
   5170.79  1.02101
   5177.94  1.02457
   5185.09  1.02814
   5192.25  1.03173
   5199.42  1.03532
   5206.60  1.03893
   5213.80  1.04255
   5221.00  1.04619
   5228.21  1.04983
   5235.43  1.05350
   5242.66  1.05717
   5249.90  1.06086
   5257.16  1.06456
   5264.42  1.06827
   5271.69  1.07199
   5278.97  1.07573
   5286.26  1.07948
   5293.56  1.08325
   5300.88  1.08703
   5308.20  1.09082
   5315.53  1.09463
   5322.87  1.09845
   5330.23  1.10229
   5337.59  1.10613
   5344.96  1.10999
   5352.34  1.11387
   5359.74  1.11776
   5367.14  1.12166
   5374.55  1.12558
   5381.98  1.12951
   5389.41  1.13345
   5396.85  1.13741
   5404.31  1.14139
   5411.77  1.14537
   5419.25  1.14937
   5426.73  1.15339
   5434.23  1.15742
   5441.74  1.16146
   5449.25  1.16552
   5456.78  1.16960
   5464.32  1.17369
   5471.87  1.17779
   5479.42  1.18191
   5486.99  1.18604
   5494.57  1.19018
   5502.16  1.19434
   5509.76  1.19852
   5517.37  1.20271
   5524.99  1.20692
   5532.62  1.21114
   5540.27  1.21537
   5547.92  1.21962
   5555.58  1.22389
   5563.26  1.22817
   5570.94  1.23246
   5578.63  1.23678
   5586.34  1.24111
   5594.06  1.24546
   5601.78  1.24982
   5609.52  1.25420
   5617.27  1.25859
   5625.03  1.26300
   5632.80  1.26743
   5640.58  1.27187
   5648.37  1.27632
   5656.17  1.28079
   5663.98  1.28528
   5671.81  1.28978
   5679.64  1.29430
   5687.49  1.29883
   5695.34  1.30338
   5703.21  1.30794
   5711.09  1.31252
   5718.98  1.31712
   5726.88  1.32174
   5734.79  1.32637
   5742.71  1.33102
   5750.64  1.33569
   5758.58  1.34037
   5766.54  1.34507
   5774.50  1.34979
   5782.48  1.35452
   5790.47  1.35927
   5798.46  1.36403
   5806.47  1.36882
   5814.49  1.37363
   5822.52  1.37845
   5830.57  1.38329
   5838.62  1.38814
   5846.69  1.39301
   5854.76  1.39790
   5862.85  1.40281
   5870.95  1.40773
   5879.06  1.41267
   5887.18  1.41763
   5895.31  1.42261
   5903.45  1.42760
   5911.61  1.43261
   5919.77  1.43764
   5927.95  1.44269
   5936.14  1.44775
   5944.34  1.45283
   5952.55  1.45794
   5960.77  1.46306
   5969.00  1.46820
   5977.25  1.47336
   5985.50  1.47854
   5993.77  1.48373
   6002.05  1.48895
   6010.34  1.49418
   6018.64  1.49943
   6026.96  1.50470
   6035.28  1.50999
   6043.62  1.51530
   6051.97  1.52062
   6060.32  1.52597
   6068.70  1.53133
   6077.08  1.53671
   6085.47  1.54211
   6093.88  1.54753
   6102.29  1.55297
   6110.72  1.55843
   6119.16  1.56392
   6127.62  1.56942
   6136.08  1.57495
   6144.56  1.58049
   6153.04  1.58606
   6161.54  1.59164
   6170.05  1.59724
   6178.58  1.60287
   6187.11  1.60851
   6195.66  1.61417
   6204.21  1.61985
   6212.78  1.62556
   6221.37  1.63128
   6229.96  1.63702
   6238.56  1.64278
   6247.18  1.64856
   6255.81  1.65437
   6264.45  1.66019
   6273.10  1.66604
   6281.77  1.67192
   6290.45  1.67781
   6299.14  1.68373
   6307.84  1.68966
   6316.55  1.69562
   6325.27  1.70160
   6334.01  1.70760
   6342.76  1.71362
   6351.52  1.71966
   6360.29  1.72573
   6369.08  1.73181
   6377.88  1.73791
   6386.69  1.74404
   6395.51  1.75019
   6404.34  1.75636
   6413.19  1.76255
   6422.05  1.76876
   6430.92  1.77500
   6439.80  1.78127
   6448.70  1.78755
   6457.60  1.79387
   6466.52  1.80020
   6475.45  1.80656
   6484.40  1.81294
   6493.36  1.81934
   6502.32  1.82576
   6511.31  1.83221
   6520.30  1.83868
   6529.31  1.84517
   6538.33  1.85168
   6547.36  1.85822
   6556.40  1.86478
   6565.46  1.87136
   6574.52  1.87797
   6583.61  1.88460
   6592.70  1.89125
   6601.81  1.89792
   6610.92  1.90463
   6620.06  1.91136
   6629.20  1.91811
   6638.36  1.92489
   6647.53  1.93169
   6656.71  1.93851
   6665.90  1.94536
   6675.11  1.95223
   6684.33  1.95913
   6693.56  1.96605
   6702.81  1.97301
   6712.07  1.97999
   6721.34  1.98700
   6730.62  1.99403
   6739.92  2.00109
   6749.23  2.00817
   6758.55  2.01528
   6767.89  2.02241
   6777.24  2.02956
   6786.60  2.03675
   6795.97  2.04395
   6805.36  2.05119
   6814.76  2.05845
   6824.17  2.06573
   6833.60  2.07304
   6843.04  2.08038
   6852.49  2.08774
   6861.95  2.09513
   6871.43  2.10255
   6880.92  2.11000
   6890.43  2.11748
   6899.95  2.12498
   6909.48  2.13251
   6919.02  2.14006
   6928.58  2.14764
   6938.15  2.15525
   6947.73  2.16289
   6957.33  2.17055
   6966.94  2.17824
   6976.56  2.18596
   6986.20  2.19370
   6995.85  2.20147
   7005.51  2.20927
   7015.19  2.21710
   7024.88  2.22495
   7034.58  2.23283
   7044.30  2.24075
   7054.03  2.24869
   7063.77  2.25666
   7073.53  2.26466
   7083.30  2.27269
   7093.08  2.28075
   7102.88  2.28884
   7112.69  2.29695
   7122.52  2.30509
   7132.35  2.31326
   7142.21  2.32147
   7152.07  2.32971
   7161.95  2.33798
   7171.84  2.34627
   7181.75  2.35460
   7191.67  2.36295
   7201.60  2.37134
   7211.55  2.37975
   7221.51  2.38820
   7231.49  2.39668
   7241.47  2.40519
   7251.48  2.41375
   7261.49  2.42232
   7271.52  2.43093
   7281.57  2.43957
   7291.62  2.44824
   7301.70  2.45695
   7311.78  2.46568
   7321.88  2.47444
   7332.00  2.48324
   7342.12  2.49206
   7352.26  2.50091
   7362.42  2.50980
   7372.59  2.51871
   7382.77  2.52766
   7392.97  2.53664
   7403.18  2.54565
   7413.41  2.55469
   7423.65  2.56378
   7433.90  2.57290
   7444.17  2.58207
   7454.45  2.59126
   7464.75  2.60048
   7475.06  2.60975
   7485.39  2.61904
   7495.72  2.62836
   7506.08  2.63772
   7516.45  2.64711
   7526.83  2.65652
   7537.23  2.66597
   7547.64  2.67544
   7558.06  2.68495
   7568.50  2.69450
   7578.96  2.70407
   7589.42  2.71369
   7599.91  2.72333
   7610.40  2.73301
   7620.92  2.74275
   7631.44  2.75252
   7641.98  2.76234
   7652.54  2.77219
   7663.11  2.78207
   7673.70  2.79199
   7684.29  2.80195
   7694.91  2.81194
   7705.54  2.82197
   7716.18  2.83203
   7726.84  2.84213
   7737.51  2.85226
   7748.20  2.86242
   7758.90  2.87263
   7769.62  2.88287
   7780.35  2.89315
   7791.10  2.90347
   7801.86  2.91382
   7812.64  2.92421
   7823.43  2.93463
   7834.23  2.94509
   7845.06  2.95559
   7855.89  2.96612
   7866.74  2.97670
   7877.61  2.98730
   7888.49  2.99795
   7899.39  3.00864
   7910.30  3.01936
   7921.22  3.03013
   7932.17  3.04096
   7943.12  3.05182
   7954.09  3.06272
   7965.08  3.07366
   7976.08  3.08463
   7987.10  3.09565
   7998.13  3.10671
   8009.18  3.11780
   8020.24  3.12894
   8031.32  3.14013
   8042.41  3.15136
   8053.52  3.16263
   8064.65  3.17394
   8075.79  3.18530
   8086.94  3.19669
   8098.11  3.20812
   8109.30  3.21959
   8120.50  3.23111
   8131.71  3.24266
   8142.95  3.25426
   8154.19  3.26590
   8165.46  3.27758
   8176.74  3.28930
   8188.03  3.30106
   8199.34  3.31287
   8210.67  3.32472
   8222.01  3.33661
   8233.36  3.34855
   8244.74  3.36053
   8256.13  3.37256
   8267.53  3.38463
   8278.95  3.39674
   8290.38  3.40890
   8301.83  3.42110
   8313.30  3.43335
   8324.79  3.44564
   8336.28  3.45797
   8347.80  3.47036
   8359.33  3.48280
   8370.88  3.49529
   8382.44  3.50782
   8394.02  3.52039
   8405.61  3.53301
   8417.22  3.54568
   8428.85  3.55839
   8440.49  3.57114
   8452.15  3.58395
   8463.82  3.59680
   8475.51  3.60970
   8487.22  3.62265
   8498.95  3.63564
   8510.68  3.64868
   8522.44  3.66176
   8534.21  3.67489
   8546.00  3.68807
   8557.80  3.70129
   8569.63  3.71458
   8581.46  3.72790
   8593.32  3.74128
   8605.19  3.75471
   8617.07  3.76818
   8628.97  3.78169
   8640.89  3.79527
   8652.83  3.80888
   8664.78  3.82255
   8676.75  3.83627
   8688.73  3.85003
   8700.74  3.86385
   8712.75  3.87771
   8724.79  3.89162
   8736.84  3.90559
   8748.91  3.91960
   8760.99  3.93367
   8773.09  3.94778
